Data from H2O_Subt9__9__00049.txt Node

Date: Tue Nov 04 10:20:34 EST 2025
User: brett
Spectrometer: USB4F03499
Trigger mode: 4
Integration Time (sec): 3.000000E-2
Scans to average: 15
Electric dark correction enabled: true
Nonlinearity correction enabled: true
Boxcar width: 1
XAxis mode: Wavelengths
Number of Pixels in Spectrum: 3648
>>>>>Begin Spectral Data<<<<<
345.386	-4.75442
345.605	-4.75442
345.824	0.88962
346.044	-1.36119
346.263	-3.34849
346.482	-3.67908
346.701	0.46362
346.92	6.52673
347.139	7.504
347.358	1.31371
347.577	3.30361
347.796	0.37161
348.015	9.4632
348.234	3.82217
348.453	-5.63263
348.672	-11.24018
348.891	-13.39106
349.11	-2.9907
349.329	2.74631
349.548	10.14351
349.767	19.23883
349.986	24.15832
350.205	23.50959
350.424	18.8811
350.643	17.12433
350.862	13.57018
351.08	8.41765
351.299	12.38961
351.518	14.80163
351.737	19.29686
351.956	15.25799
352.174	19.29906
352.393	19.26917
352.612	21.41716
352.831	22.20235
353.049	26.99029
353.268	27.0234
353.487	33.63744
353.705	31.26049
353.924	29.11127
354.143	25.6223
354.361	29.69197
354.58	33.96205
354.798	35.68538
355.017	36.69646
355.236	31.93921
355.454	26.56485
355.673	26.59315
355.891	29.52403
356.11	39.68452
356.328	38.80894
356.547	41.2186
356.765	37.93144
356.984	38.22496
357.202	38.38861
357.42	41.2512
357.639	42.9712
357.857	44.23725
358.076	42.93647
358.294	47.08081
358.512	53.07271
358.731	54.24288
358.949	52.37642
359.167	48.4313
359.386	47.26279
359.604	47.57962
359.822	51.69134
360.04	53.54278
360.259	53.71181
360.477	51.82143
360.695	52.30552
360.913	51.50157
361.131	52.89764
361.35	51.85263
361.568	50.22187
361.786	46.18055
362.004	49.70799
362.222	55.40005
362.44	55.76789
362.658	51.26885
362.876	47.00586
363.094	50.68469
363.312	57.81834
363.53	56.97077
363.749	52.83269
363.967	47.36416
364.184	48.17508
364.402	51.63085
364.62	54.62573
364.838	50.56225
365.056	38.76799
365.274	29.55183
365.492	27.14269
365.71	25.74273
365.928	28.44869
366.146	25.77743
366.364	29.23363
366.581	25.39028
366.799	28.39106
367.017	30.47846
367.235	28.13335
367.453	25.68648
367.67	21.67794
367.888	19.29906
368.106	21.21159
368.323	22.73983
368.541	14.98471
368.759	18.60951
368.977	19.88157
369.194	35.88098
369.412	23.66592
369.629	19.94849
369.847	12.55099
370.065	20.59919
370.282	24.54218
370.5	29.62366
370.717	27.89433
370.935	28.64345
371.152	25.19077
371.37	25.93996
371.588	24.14946
371.805	30.60039
372.022	27.76542
372.24	32.78138
372.457	28.38099
372.675	39.30166
372.892	33.20904
373.11	36.00947
373.327	29.78537
373.544	35.45438
373.762	33.69633
373.979	29.52296
374.196	29.22884
374.414	30.89134
374.631	36.75667
374.848	36.20162
375.066	40.89053
375.283	43.55786
375.5	46.45564
375.717	43.13755
375.935	40.7919
376.152	39.71338
376.369	38.2457
376.586	39.28295
376.803	41.01495
377.02	46.74489
377.238	47.50162
377.455	47.33224
377.672	42.02757
377.889	38.89984
378.106	39.39788
378.323	40.92996
378.54	44.14885
378.757	41.66862
378.974	42.15296
379.191	42.12701
379.408	41.67249
379.625	39.02871
379.842	42.90683
380.059	47.33633
380.276	50.8608
380.493	41.63796
380.71	37.46783
380.927	37.75076
381.143	47.1006
381.36	53.04877
381.577	55.20946
381.794	51.55459
382.011	43.81167
382.228	39.89487
382.444	40.45298
382.661	45.57197
382.878	45.77507
383.095	45.34988
383.311	44.73116
383.528	48.28142
383.745	47.24377
383.962	50.53083
384.178	48.08623
384.395	50.78629
384.612	47.68879
384.828	49.08647
385.045	45.66541
385.261	46.09228
385.478	46.15831
385.695	44.07435
385.911	41.53292
386.128	44.69342
386.344	49.45122
386.561	53.74735
386.777	51.49818
386.994	55.07687
387.21	54.85236
387.427	53.03344
387.643	52.90639
387.86	53.46002
388.076	52.84428
388.292	43.75262
388.509	43.36307
388.725	36.28824
388.942	40.16953
389.158	31.24552
389.374	38.95929
389.591	37.52688
389.807	41.66267
390.023	42.29045
390.239	46.00436
390.456	42.41972
390.672	38.02498
390.888	34.17601
391.104	40.23359
391.321	44.39939
391.537	46.3903
391.753	46.22114
391.969	46.50566
392.185	47.09275
392.401	44.8582
392.618	46.65668
392.834	46.00199
393.05	47.52653
393.266	43.09261
393.482	41.59377
393.698	41.16901
393.914	44.75247
394.13	53.71041
394.346	55.33813
394.562	57.78523
394.778	52.7992
394.994	51.30623
395.21	46.57877
395.426	43.65446
395.642	46.13118
395.858	47.14293
396.073	50.39513
396.289	46.74738
396.505	39.51959
396.721	41.37966
396.937	42.87537
397.153	42.22412
397.369	40.56621
397.584	37.63641
397.8	44.40312
398.016	43.5808
398.232	48.00383
398.447	45.8663
398.663	41.15069
398.879	37.96382
399.094	41.53779
399.31	42.28348
399.526	40.45969
399.741	36.94786
399.957	43.42992
400.173	44.11524
400.388	45.48339
400.604	37.76215
400.82	35.90503
401.035	33.78859
401.251	32.68502
401.466	40.86437
401.682	45.18918
401.897	47.62963
402.113	41.66709
402.328	38.83988
402.544	38.83912
402.759	38.0561
402.974	37.10674
403.19	40.30432
403.405	40.82437
403.621	33.69099
403.836	33.72088
404.051	38.96908
404.267	48.35209
404.482	48.24851
404.697	46.06153
404.913	38.37701
405.128	33.91955
405.343	37.4724
405.559	40.66417
405.774	39.20026
405.989	35.74346
406.204	42.4512
406.42	50.19937
406.635	54.92215
406.85	49.15574
407.065	44.79217
407.28	41.60437
407.495	47.4368
407.71	45.41763
407.926	40.11102
408.141	37.17428
408.356	39.35635
408.571	40.49447
408.786	39.03404
409.001	42.65168
409.216	47.95966
409.431	47.40349
409.646	47.7631
409.861	42.90548
410.076	46.23336
410.291	41.28015
410.506	39.23687
410.721	41.0216
410.936	47.56949
411.15	53.48717
411.365	50.35713
411.58	52.63361
411.795	54.52801
412.01	54.66395
412.225	53.85649
412.439	55.87068
412.654	64.78559
412.869	64.58487
413.084	58.07696
413.299	54.50299
413.513	49.19498
413.728	52.11623
413.943	47.16314
414.157	45.7911
414.372	42.37577
414.587	45.40109
414.801	45.5315
415.016	47.1963
415.231	50.03621
415.445	45.21843
415.66	44.46937
415.874	40.59135
416.089	50.26278
416.304	48.9928
416.518	53.81667
416.733	50.00683
416.947	52.15238
417.162	40.81485
417.376	38.89032
417.59	36.64734
417.805	40.42893
418.019	40.62698
418.234	41.93407
418.448	41.47622
418.663	49.98365
418.877	52.19586
419.091	49.42604
419.306	46.16172
419.52	46.614
419.734	57.02747
419.949	53.02411
420.163	54.62214
420.377	45.67464
420.591	47.29715
420.806	36.41994
421.02	39.44912
421.234	36.65086
421.448	44.49995
421.663	48.21521
421.877	44.63839
422.091	44.53868
422.305	38.73999
422.519	41.53879
422.733	35.19088
422.947	35.35493
423.161	33.30138
423.376	43.55303
423.59	46.02816
423.804	44.69213
424.018	39.6748
424.232	39.53902
424.446	44.16402
424.66	43.75426
424.874	43.76292
425.088	40.82242
425.302	42.18482
425.515	42.10983
425.729	49.21969
425.943	49.18641
426.157	46.05925
426.371	44.16377
426.585	45.26274
426.799	50.64408
427.013	52.53701
427.226	52.77287
427.44	51.533
427.654	46.58105
427.868	38.96151
428.081	33.19778
428.295	39.03057
428.509	44.07742
428.723	39.90757
428.936	34.08249
429.15	30.36594
429.364	38.67376
429.577	35.31841
429.791	37.69776
430.005	36.36163
430.218	38.70935
430.432	36.88791
430.645	27.73531
430.859	29.75094
431.073	28.38369
431.286	41.28577
431.5	40.47109
431.713	45.58364
431.927	42.29381
432.14	39.49396
432.354	34.80733
432.567	31.09354
432.781	32.84861
432.994	32.16016
433.207	37.82805
433.421	34.31368
433.634	40.5638
433.848	36.03339
434.061	39.28707
434.274	34.37486
434.488	37.1379
434.701	41.1759
434.914	40.62166
435.127	38.41183
435.341	34.27842
435.554	38.28019
435.767	40.85683
435.98	44.14394
436.194	48.67529
436.407	48.34977
436.62	47.96474
436.833	45.71656
437.046	49.10383
437.259	46.29379
437.473	48.21841
437.686	48.37418
437.899	51.79549
438.112	48.53742
438.325	43.32863
438.538	46.75023
438.751	49.46036
438.964	57.14652
439.177	53.52758
439.39	53.54811
439.603	52.9977
439.816	53.68408
440.029	54.2952
440.242	53.17837
440.455	61.02475
440.668	62.27062
440.881	64.524
441.094	63.67492
441.306	72.19741
441.519	78.50417
441.732	74.40435
441.945	68.4775
442.158	59.82159
442.37	62.43256
442.583	63.00484
442.796	60.69181
443.009	55.93222
443.222	51.95078
443.434	58.07318
443.647	60.3463
443.86	63.76057
444.072	57.93778
444.285	53.31703
444.498	50.81536
444.71	51.56494
444.923	54.00795
445.136	49.21775
445.348	52.76994
445.561	54.40669
445.773	56.75471
445.986	53.85517
446.198	56.88263
446.411	61.96075
446.623	62.96441
446.836	61.8923
447.048	49.94106
447.261	46.2589
447.473	37.52182
447.686	43.34902
447.898	44.94584
448.11	59.58399
448.323	59.13084
448.535	52.19555
448.748	38.57236
448.96	36.48516
449.172	38.14878
449.385	42.54282
449.597	41.40719
449.809	43.9129
450.021	40.07166
450.234	43.77801
450.446	46.21609
450.658	51.46717
450.87	50.00096
451.083	53.64044
451.295	55.44928
451.507	56.30324
451.719	60.31161
451.931	62.6486
452.143	70.56032
452.356	68.18706
452.568	68.58067
452.78	63.2412
452.992	65.12316
453.204	61.12245
453.416	64.20552
453.628	65.22401
453.84	71.79626
454.052	83.57586
454.264	86.62222
454.476	85.68614
454.688	79.02016
454.9	75.97214
455.112	71.01744
455.324	68.12911
455.536	71.73947
455.747	74.53447
455.959	77.90322
456.171	74.2289
456.383	75.88671
456.595	74.55824
456.807	70.16885
457.018	68.68155
457.23	66.65779
457.442	71.10393
457.654	72.43146
457.865	71.80597
458.077	76.23233
458.289	78.80791
458.501	81.5965
458.712	80.24416
458.924	79.01198
459.136	68.43025
459.347	66.07603
459.559	63.02031
459.77	65.20236
459.982	61.45557
460.194	57.9997
460.405	57.28551
460.617	59.44147
460.828	58.89524
461.04	57.87637
461.251	54.85139
461.463	53.77197
461.674	50.0614
461.886	45.95395
462.097	45.40131
462.309	53.55037
462.52	58.15182
462.731	55.41972
462.943	50.63493
463.154	42.80976
463.366	49.52093
463.577	44.1076
463.788	50.9923
464	48.05255
464.211	55.15634
464.422	51.7669
464.634	52.7813
464.845	51.47446
465.056	55.57192
465.267	51.34226
465.478	58.51214
465.69	56.94194
465.901	59.87007
466.112	52.77056
466.323	48.675
466.534	48.40745
466.745	49.86963
466.957	46.25444
467.168	50.29452
467.379	49.94338
467.59	58.40612
467.801	53.16378
468.012	51.26461
468.223	47.36227
468.434	43.84319
468.645	42.7012
468.856	44.29519
469.067	47.94469
469.278	53.68042
469.489	48.82924
469.7	48.79691
469.911	43.45803
470.122	54.56299
470.333	62.19351
470.543	61.01843
470.754	59.77831
470.965	52.99593
471.176	59.53705
471.387	56.34588
471.598	59.08309
471.808	66.87697
472.019	63.03381
472.23	64.65618
472.441	55.04632
472.651	58.8608
472.862	56.61331
473.073	59.02176
473.283	57.58459
473.494	58.46522
473.705	57.12761
473.915	61.0833
474.126	59.51621
474.337	63.29335
474.547	59.2052
474.758	58.75657
474.968	64.14719
475.179	67.06775
475.389	69.40157
475.6	56.51693
475.81	60.0798
476.021	61.20221
476.231	71.71783
476.442	67.61459
476.652	67.37988
476.863	59.67436
477.073	58.07572
477.284	57.62055
477.494	67.56856
477.704	66.6267
477.915	66.68689
478.125	61.65513
478.335	61.45469
478.546	64.74578
478.756	64.72661
478.966	66.68799
479.177	68.57101
479.387	66.89449
479.597	69.62922
479.807	71.03346
480.018	66.1139
480.228	68.12873
480.438	63.96057
480.648	69.09321
480.858	71.71387
481.068	68.90448
481.279	72.06574
481.489	77.96702
481.699	82.78543
481.909	87.69629
482.119	87.97319
482.329	97.94667
482.539	105.97311
482.749	109.4457
482.959	115.46724
483.169	123.09419
483.379	135.82151
483.589	142.08445
483.799	148.23574
484.009	154.77612
484.219	169.37602
484.429	175.83643
484.639	184.78811
484.849	180.40865
485.059	180.02951
485.268	176.98278
485.478	174.86484
485.688	183.54006
485.898	186.77206
486.108	199.32707
486.317	210.86417
486.527	227.43146
486.737	244.39963
486.947	248.75758
487.156	254.49421
487.366	256.99418
487.576	268.20838
487.785	275.15995
487.995	281.17169
488.205	282.66531
488.414	285.91556
488.624	294.44912
488.834	295.45909
489.043	295.82362
489.253	295.03663
489.462	301.74102
489.672	301.51281
489.882	295.27261
490.091	293.22922
490.301	298.57155
490.51	306.14093
490.72	306.99355
490.929	302.83656
491.138	298.42734
491.348	299.06282
491.557	289.55124
491.767	285.61244
491.976	270.22294
492.185	262.60942
492.395	257.20708
492.604	258.01574
492.813	258.00768
493.023	249.77325
493.232	245.53516
493.441	241.3571
493.651	234.5332
493.86	223.01273
494.069	222.98578
494.278	222.44416
494.488	225.0806
494.697	217.40375
494.906	213.25577
495.115	201.41636
495.324	191.81823
495.533	181.29888
495.743	183.033
495.952	179.71577
496.161	177.34418
496.37	166.48292
496.579	163.79428
496.788	158.14077
496.997	152.54344
497.206	141.7543
497.415	133.6575
497.624	127.44218
497.833	115.84484
498.042	109.17378
498.251	99.30488
498.46	99.05337
498.669	99.2194
498.878	103.1014
499.087	110.09719
499.296	110.84464
499.504	104.99061
499.713	100.00703
499.922	101.69815
500.131	97.97688
500.34	90.75018
500.549	84.99938
500.757	87.03457
500.966	92.01738
501.175	90.31923
501.384	98.59043
501.592	101.68412
501.801	102.95386
502.01	93.57002
502.218	95.75348
502.427	96.15014
502.636	104.77278
502.844	102.00384
503.053	102.30165
503.262	95.89423
503.47	94.78733
503.679	95.38314
503.887	95.89693
504.096	94.21657
504.304	91.41146
504.513	93.783
504.721	89.66568
504.93	90.47533
505.138	86.40958
505.347	94.45368
505.555	93.24246
505.764	93.70376
505.972	94.3812
506.18	93.22012
506.389	93.33676
506.597	89.86628
506.806	86.34834
507.014	91.57785
507.222	93.49679
507.431	99.70239
507.639	97.31701
507.847	95.35304
508.055	96.92795
508.264	100.2071
508.472	102.54558
508.68	104.4316
508.888	102.57571
509.096	97.60412
509.305	95.06395
509.513	94.52535
509.721	96.20564
509.929	93.99807
510.137	93.85591
510.345	91.76575
510.553	92.96448
510.762	95.504
510.97	96.83336
511.178	99.95069
511.386	100.81897
511.594	103.27653
511.802	100.14235
512.01	93.36553
512.218	93.60289
512.426	87.33028
512.634	90.99662
512.842	90.80091
513.049	100.43959
513.257	105.87803
513.465	101.35325
513.673	98.8177
513.881	98.20297
514.089	101.62006
514.297	101.51863
514.504	97.3938
514.712	86.32063
514.92	89.79011
515.128	82.54648
515.336	92.80414
515.543	89.42818
515.751	97.91401
515.959	100.0031
516.166	105.28374
516.374	106.64797
516.582	106.07583
516.789	106.0716
516.997	109.59635
517.205	114.74199
517.412	114.69548
517.62	116.36559
517.827	116.41792
518.035	121.28942
518.243	120.69387
518.45	125.37399
518.658	129.3618
518.865	139.25504
519.073	144.55312
519.28	153.39113
519.488	156.83742
519.695	170.58925
519.902	180.43084
520.11	196.52689
520.317	196.21687
520.525	202.22139
520.732	209.48104
520.939	222.10697
521.147	232.33253
521.354	236.38041
521.561	247.03916
521.769	248.74141
521.976	251.94012
522.183	250.45855
522.391	254.69102
522.598	256.30863
522.805	254.75127
523.012	243.59615
523.219	241.63589
523.427	238.10458
523.634	246.33415
523.841	238.57958
524.048	239.79221
524.255	233.08675
524.462	239.2112
524.669	235.54519
524.877	240.56465
525.084	235.30778
525.291	232.79102
525.498	231.16405
525.705	228.43414
525.912	227.52665
526.119	220.70833
526.326	215.91074
526.533	217.40761
526.74	217.75285
526.947	217.39184
527.153	213.87874
527.36	204.58329
527.567	205.27894
527.774	194.18437
527.981	189.23532
528.188	176.25389
528.395	175.36064
528.602	167.70595
528.808	168.87624
529.015	163.51507
529.222	149.43218
529.429	129.67046
529.635	112.9584
529.842	112.85646
530.049	115.57428
530.256	114.48887
530.462	109.78485
530.669	102.17942
530.876	96.42133
531.082	93.39127
531.289	90.32244
531.495	91.31326
531.702	89.26677
531.909	90.78596
532.115	88.7777
532.322	86.89545
532.528	81.95467
532.735	81.31817
532.941	81.87408
533.148	85.45961
533.354	82.26495
533.561	81.03376
533.767	74.0379
533.974	82.0796
534.18	83.46541
534.387	89.55574
534.593	76.14479
534.799	80.47278
535.006	83.0018
535.212	90.09996
535.418	90.76984
535.625	88.0388
535.831	92.88177
536.037	87.75707
536.244	87.28959
536.45	84.39872
536.656	85.44331
536.862	89.10253
537.068	89.8114
537.275	92.37532
537.481	87.48671
537.687	85.70772
537.893	80.67541
538.099	86.85421
538.305	89.58441
538.512	96.93597
538.718	89.71089
538.924	91.5264
539.13	88.99294
539.336	92.67639
539.542	90.23207
539.748	86.45999
539.954	89.50122
540.16	89.12027
540.366	91.703
540.572	90.10043
540.778	88.3092
540.984	92.1085
541.19	93.56953
541.396	88.29667
541.602	80.86055
541.807	72.99211
542.013	85.38547
542.219	84.24949
542.425	91.8471
542.631	84.66529
542.837	89.14646
543.042	88.47996
543.248	86.1716
543.454	87.64148
543.66	85.97477
543.865	86.99005
544.071	82.41627
544.277	86.49103
544.483	92.62479
544.688	91.93906
544.894	87.67395
545.1	89.46317
545.305	91.69717
545.511	88.59889
545.716	81.08994
545.922	81.19084
546.128	80.51687
546.333	77.56086
546.539	77.82721
546.744	73.85056
546.95	75.6026
547.155	75.46886
547.361	75.7185
547.566	75.3979
547.772	70.48088
547.977	70.98536
548.182	73.35089
548.388	79.01932
548.593	79.92386
548.799	80.42253
549.004	75.7368
549.209	75.9961
549.415	73.09357
549.62	79.80632
549.825	80.78091
550.031	85.34462
550.236	82.019
550.441	85.32073
550.646	82.90719
550.852	83.75535
551.057	82.51317
551.262	78.89329
551.467	74.66358
551.672	59.58784
551.878	57.42157
552.083	54.55873
552.288	60.02681
552.493	57.48084
552.698	61.74104
552.903	68.61672
553.108	69.29039
553.313	69.62756
553.518	71.15849
553.723	73.94447
553.928	74.45437
554.133	71.18574
554.338	68.22196
554.543	67.59515
554.748	64.9298
554.953	72.75119
555.158	74.32418
555.363	79.36114
555.568	74.00803
555.773	70.77909
555.978	64.60329
556.182	70.63237
556.387	71.41099
556.592	74.24599
556.797	67.9525
557.002	67.1336
557.206	74.23018
557.411	81.72674
557.616	86.22892
557.821	91.23274
558.025	89.52044
558.23	91.47416
558.435	83.85383
558.64	87.76279
558.844	84.45506
559.049	88.69212
559.253	89.59853
559.458	93.24452
559.663	94.40231
559.867	95.1156
560.072	101.73906
560.276	110.89607
560.481	118.58956
560.685	127.73195
560.89	131.98062
561.094	141.79073
561.299	143.34828
561.503	149.03011
561.708	149.21361
561.912	156.04921
562.117	162.91596
562.321	171.24616
562.525	174.36731
562.73	173.26753
562.934	173.80726
563.139	178.13862
563.343	179.84146
563.547	176.68136
563.752	176.96797
563.956	183.08008
564.16	190.35628
564.364	183.242
564.569	176.0088
564.773	175.38482
564.977	179.46005
565.181	187.64874
565.385	184.22185
565.59	184.83779
565.794	177.4135
565.998	170.61351
566.202	167.46921
566.406	170.67646
566.61	176.07153
566.814	179.31971
567.018	180.6517
567.222	177.99638
567.426	173.45364
567.63	165.36531
567.834	168.98548
568.038	169.52697
568.242	172.6307
568.446	169.14602
568.65	166.97478
568.854	164.75741
569.058	163.01929
569.262	157.61625
569.466	151.61148
569.67	136.49558
569.874	133.2483
570.078	128.7936
570.281	131.56017
570.485	126.09503
570.689	126.01921
570.893	124.82777
571.097	124.38114
571.3	120.22741
571.504	112.67388
571.708	110.50528
571.912	108.00095
572.115	112.59057
572.319	110.83745
572.523	107.22661
572.726	102.9072
572.93	96.31223
573.133	85.77324
573.337	84.8937
573.541	87.06497
573.744	90.29147
573.948	87.72935
574.151	80.20969
574.355	73.40623
574.558	75.26655
574.762	76.20752
574.965	86.04667
575.169	89.83224
575.372	95.7901
575.576	99.84195
575.779	92.23512
575.983	91.64746
576.186	78.43939
576.389	80.98783
576.593	79.45078
576.796	89.23888
577	91.3517
577.203	94.09094
577.406	87.56085
577.609	90.28286
577.813	92.98811
578.016	96.33992
578.219	89.35916
578.423	85.74298
578.626	81.05838
578.829	81.89916
579.032	82.45042
579.235	88.91359
579.438	89.92875
579.642	86.84381
579.845	84.30944
580.048	77.56271
580.251	78.53692
580.454	84.22942
580.657	90.55712
580.86	92.29282
581.063	91.32909
581.266	91.84298
581.469	89.48019
581.672	91.10628
581.875	87.57593
582.078	91.2571
582.281	90.01711
582.484	95.37939
582.687	93.6937
582.89	91.25258
583.093	96.05802
583.296	102.30222
583.499	103.31336
583.702	93.62571
583.904	93.08854
584.107	97.73464
584.31	100.83988
584.513	99.22042
584.716	97.23337
584.918	106.15171
585.121	104.94696
585.324	103.87636
585.527	92.51831
585.729	96.61208
585.932	94.14897
586.135	103.09232
586.337	103.96245
586.54	102.0642
586.743	98.03004
586.945	90.60063
587.148	92.13445
587.35	89.56906
587.553	95.70153
587.755	98.11792
587.958	99.98007
588.161	100.45148
588.363	103.14197
588.566	106.63384
588.768	100.59518
588.971	100.97975
589.173	92.43878
589.375	92.32629
589.578	86.66883
589.78	86.30663
589.983	90.46334
590.185	94.04673
590.387	96.46074
590.59	92.73344
590.792	94.38676
590.994	95.46453
591.197	96.82811
591.399	92.46676
591.601	94.67549
591.803	90.54791
592.006	87.5253
592.208	86.15619
592.41	89.00105
592.612	88.32958
592.815	87.49172
593.017	87.86979
593.219	85.97519
593.421	88.7632
593.623	84.29499
593.825	86.40251
594.027	88.97818
594.229	90.44649
594.432	94.55344
594.634	87.39581
594.836	84.79903
595.038	89.35557
595.24	97.61658
595.442	98.90835
595.644	94.25956
595.846	86.01296
596.048	90.16803
596.249	91.17041
596.451	93.56373
596.653	92.01283
596.855	93.70911
597.057	105.55969
597.259	104.46263
597.461	97.09343
597.663	86.83561
597.864	90.31907
598.066	96.51219
598.268	101.29596
598.47	107.95978
598.671	105.2338
598.873	95.24267
599.075	82.3225
599.277	84.21197
599.478	90.28261
599.68	96.50949
599.882	101.96813
600.083	105.87363
600.285	106.47839
600.487	98.99849
600.688	101.11565
600.89	103.50168
601.091	107.56702
601.293	99.64783
601.494	99.80757
601.696	103.27798
601.898	106.43169
602.099	105.22347
602.301	101.35828
602.502	94.15978
602.703	93.96746
602.905	90.73867
603.106	95.32411
603.308	97.20874
603.509	96.79141
603.711	101.02629
603.912	103.19062
604.113	110.80257
604.315	111.89377
604.516	113.72638
604.717	116.07424
604.919	116.7639
605.12	119.46335
605.321	122.34344
605.522	120.15181
605.724	120.76897
605.925	119.21974
606.126	121.91525
606.327	121.03441
606.528	115.74581
606.729	123.62634
606.931	130.20011
607.132	142.62994
607.333	143.14739
607.534	144.31461
607.735	138.95082
607.936	136.00908
608.137	133.98997
608.338	139.89302
608.539	146.00943
608.74	149.81755
608.941	151.0359
609.142	157.33058
609.343	157.50565
609.544	163.68279
609.745	158.24143
609.946	158.24474
610.147	156.30201
610.348	155.91032
610.549	159.77091
610.75	161.73583
610.95	162.19451
611.151	157.9038
611.352	156.99486
611.553	160.8033
611.754	163.16389
611.954	160.37508
612.155	155.62764
612.356	148.54576
612.557	148.27543
612.757	147.33516
612.958	148.15002
613.159	143.49615
613.359	146.0114
613.56	143.71286
613.761	144.3432
613.961	136.70481
614.162	136.83298
614.362	134.56494
614.563	138.18106
614.764	136.01654
614.964	134.83291
615.165	128.5896
615.365	128.64312
615.566	124.51754
615.766	124.71539
615.967	118.71077
616.167	115.69712
616.368	111.9492
616.568	114.28458
616.768	112.36728
616.969	113.34629
617.169	110.70878
617.37	107.64878
617.57	105.42922
617.77	99.03951
617.971	96.34323
618.171	89.01183
618.371	92.5181
618.571	101.43986
618.772	104.82606
618.972	99.69659
619.172	90.19065
619.372	87.86667
619.573	93.12594
619.773	93.06985
619.973	91.43233
620.173	82.36599
620.373	78.28918
620.573	75.00315
620.774	74.58127
620.974	72.85339
621.174	70.31955
621.374	71.27307
621.574	72.67022
621.774	80.55422
621.974	75.30695
622.174	76.45684
622.374	67.43336
622.574	68.45163
622.774	62.59351
622.974	64.81397
623.174	71.11585
623.374	75.12132
623.574	73.88218
623.774	71.41792
623.973	76.6966
624.173	76.2002
624.373	69.47915
624.573	62.93433
624.773	58.54699
624.973	64.31632
625.172	62.29912
625.372	72.81509
625.572	71.90071
625.772	67.86249
625.971	61.67607
626.171	57.47982
626.371	61.19026
626.57	63.18164
626.77	63.08575
626.97	64.84723
627.169	58.36204
627.369	62.60539
627.569	65.66152
627.768	67.71644
627.968	68.13881
628.167	64.07239
628.367	63.87623
628.566	56.74096
628.766	54.3619
628.965	55.83146
629.165	58.78954
629.364	61.65593
629.564	67.27477
629.763	66.33154
629.963	62.84676
630.162	61.51438
630.362	63.40026
630.561	67.01885
630.76	64.77832
630.96	68.07445
631.159	68.65745
631.358	67.6136
631.558	70.14753
631.757	67.63972
631.956	65.68277
632.155	60.34521
632.355	57.80544
632.554	59.37648
632.753	61.5602
632.952	60.51602
633.152	61.81338
633.351	61.90939
633.55	74.17872
633.749	73.37045
633.948	69.52323
634.147	69.33573
634.346	69.39363
634.545	65.68696
634.744	57.81229
634.944	56.51676
635.143	64.02759
635.342	66.63272
635.541	67.08087
635.74	65.50118
635.939	64.51021
636.138	67.43744
636.336	64.50373
636.535	62.6643
636.734	58.04421
636.933	54.65851
637.132	53.44735
637.331	53.48546
637.53	50.39318
637.729	52.51431
637.928	48.40711
638.126	49.84166
638.325	45.01559
638.524	45.99658
638.723	52.17512
638.921	55.20567
639.12	57.02867
639.319	54.65433
639.518	51.62731
639.716	55.77544
639.915	57.70838
640.114	57.93293
640.312	52.76985
640.511	51.39704
640.71	53.48502
640.908	49.45369
641.107	49.83952
641.305	50.94448
641.504	49.90127
641.702	48.01164
641.901	38.20915
642.099	39.67686
642.298	40.65443
642.496	44.41166
642.695	46.6555
642.893	47.995
643.092	50.13338
643.29	50.53081
643.489	45.24941
643.687	49.45717
643.885	51.31132
644.084	55.64402
644.282	50.42907
644.48	45.99998
644.679	41.08069
644.877	38.76615
645.075	42.31108
645.274	42.74651
645.472	46.15981
645.67	45.63935
645.868	48.01243
646.067	49.77541
646.265	51.17848
646.463	53.6818
646.661	49.41184
646.859	50.90611
647.057	42.50339
647.256	47.20561
647.454	37.37169
647.652	45.31668
647.85	38.86538
648.048	50.20463
648.246	51.73872
648.444	55.54796
648.642	45.54614
648.84	42.15322
649.038	42.01745
649.236	45.50268
649.434	41.43606
649.632	43.91897
649.83	50.20157
650.028	49.55038
650.226	48.37745
650.423	42.48878
650.621	44.70338
650.819	37.33867
651.017	41.8989
651.215	38.61005
651.413	42.42535
651.61	37.76442
651.808	43.24064
652.006	42.68392
652.204	40.85464
652.401	41.10872
652.599	42.60894
652.797	41.05171
652.995	42.55146
653.192	47.27273
653.39	52.87573
653.588	46.62151
653.785	45.08595
653.983	44.5607
654.18	50.38563
654.378	45.5052
654.576	49.70705
654.773	50.81441
654.971	61.4015
655.168	60.85078
655.366	61.63006
655.563	58.83218
655.761	55.86866
655.958	50.37142
656.156	56.02126
656.353	56.56409
656.55	73.57175
656.748	87.10416
656.945	132.98348
657.143	186.026
657.34	243.19504
657.537	303.47171
657.735	373.50101
657.932	467.0932
658.129	562.43578
658.326	670.07154
658.524	782.09121
658.721	892.01682
658.918	988.55235
659.115	1068.73265
659.313	1141.62868
659.51	1198.00899
659.707	1227.22254
659.904	1255.54421
660.101	1273.37355
660.298	1293.58844
660.496	1301.77574
660.693	1303.41044
660.89	1307.09528
661.087	1310.70009
661.284	1307.42095
661.481	1310.3961
661.678	1301.29643
661.875	1289.91336
662.072	1287.36371
662.269	1285.06469
662.466	1299.53199
662.663	1284.84747
662.86	1268.06578
663.057	1244.50873
663.254	1229.09665
663.45	1212.43217
663.647	1196.73303
663.844	1180.21894
664.041	1171.89979
664.238	1157.45393
664.435	1157.21543
664.631	1149.14006
664.828	1142.45089
665.025	1136.64586
665.222	1123.55891
665.419	1103.32524
665.615	1072.47068
665.812	1042.60477
666.009	1009.47895
666.205	955.75425
666.402	902.42388
666.599	857.67952
666.795	825.42182
666.992	803.98247
667.188	776.28004
667.385	748.09584
667.582	714.17681
667.778	694.87236
667.975	672.29052
668.171	645.79128
668.368	608.76413
668.564	570.21058
668.761	528.22216
668.957	480.91118
669.154	431.74816
669.35	376.88674
669.547	320.27657
669.743	264.1097
669.939	209.46807
670.136	164.45259
670.332	115.63203
670.528	83.7407
670.725	63.31232
670.921	56.67807
671.117	54.39502
671.314	52.70877
671.51	51.79339
671.706	51.66121
671.902	48.88674
672.099	44.78985
672.295	38.80183
672.491	41.2471
672.687	44.49571
672.883	47.00456
673.08	41.27943
673.276	36.20267
673.472	39.1287
673.668	37.83029
673.864	37.76619
674.06	35.0375
674.256	37.92514
674.452	39.68263
674.648	39.51669
674.844	32.51714
675.04	35.15971
675.236	28.02506
675.432	33.52355
675.628	36.97159
675.824	45.01717
676.02	51.60974
676.216	49.62106
676.412	49.58396
676.608	46.25098
676.804	46.80637
676.999	52.93299
677.195	51.07995
677.391	51.9188
677.587	50.87967
677.783	55.24558
677.978	47.82375
678.174	43.94591
678.37	46.28636
678.566	48.01251
678.761	47.35564
678.957	38.30098
679.153	43.29362
679.348	48.43572
679.544	54.6937
679.74	52.50096
679.935	47.20213
680.131	50.39338
680.327	52.7472
680.522	55.15775
680.718	41.21638
680.913	43.94806
681.109	40.59419
681.304	44.34374
681.5	37.43782
681.695	39.55273
681.891	45.5455
682.086	52.48974
682.282	49.29521
682.477	38.08772
682.672	32.18724
682.868	34.7983
683.063	42.29311
683.259	43.1052
683.454	44.83406
683.649	44.90124
683.845	43.60486
684.04	44.11573
684.235	44.83414
684.43	42.35336
684.626	32.3637
684.821	24.40855
685.016	24.10483
685.211	27.35729
685.407	28.10644
685.602	29.68203
685.797	25.97077
685.992	28.12502
686.187	27.57419
686.382	29.88886
686.577	33.50201
686.773	35.22723
686.968	35.55075
687.163	31.08862
687.358	34.57837
687.553	35.39468
687.748	39.33721
687.943	29.26639
688.138	26.33241
688.333	21.37759
688.528	26.39264
688.723	24.73389
688.918	27.99457
689.112	28.55062
689.307	33.24402
689.502	28.68408
689.697	27.60977
689.892	26.72691
690.087	31.61367
690.282	23.07668
690.476	21.12345
690.671	16.85495
690.866	23.57065
691.061	26.99427
691.255	27.77371
691.45	24.96817
691.645	21.2513
691.84	25.42304
692.034	26.75879
692.229	24.50832
692.424	15.61457
692.618	13.92043
692.813	13.00779
693.007	12.97381
693.202	18.73829
693.397	24.34297
693.591	30.46855
693.786	25.77867
693.98	22.97815
694.175	22.29611
694.369	29.301
694.564	29.03827
694.758	26.78929
694.953	19.16682
695.147	22.00484
695.342	20.6047
695.536	25.26278
695.73	23.8608
695.925	30.50614
696.119	26.56556
696.313	23.20911
696.508	16.36755
696.702	22.43126
696.896	22.46341
697.091	31.13198
697.285	29.50042
697.479	31.22997
697.673	21.81142
697.868	20.44505
698.062	24.84081
698.256	31.39157
698.45	27.18391
698.644	23.82865
698.839	20.79812
699.033	22.88436
699.227	22.68876
699.421	20.44158
699.615	20.40708
699.809	16.98543
700.003	23.04424
700.197	16.69175
700.391	17.99581
700.585	10.89203
700.779	16.13929
700.973	17.73511
701.167	16.49782
701.361	19.46315
701.555	22.13592
701.749	26.59901
701.943	28.48603
702.137	24.31462
702.331	21.34924
702.525	18.64938
702.718	20.60602
702.912	28.16199
703.106	26.3353
703.3	31.68131
703.494	22.95388
703.687	30.22253
703.881	21.02942
704.075	26.11418
704.269	20.34518
704.462	22.82279
704.656	19.04097
704.85	21.41695
705.043	28.45452
705.237	26.79333
705.431	27.96557
705.624	21.57931
705.818	18.97163
706.012	19.46211
706.205	21.25184
706.399	26.72718
706.592	24.18042
706.786	25.61901
706.979	26.98991
707.173	29.46952
707.366	29.53139
707.56	35.75037
707.753	35.32603
707.947	36.99027
708.14	30.0504
708.333	24.70926
708.527	27.37608
708.72	23.62888
708.914	26.59489
709.107	20.3071
709.3	33.56867
709.494	34.99677
709.687	34.96701
709.88	23.92285
710.073	22.5904
710.267	25.52128
710.46	30.4077
710.653	29.46387
710.846	27.34485
711.04	31.38787
711.233	33.5712
711.426	35.23316
711.619	31.48048
711.812	34.57875
712.005	32.85308
712.198	29.10948
712.391	26.88778
712.585	27.27791
712.778	27.99328
712.971	26.23415
713.164	26.72514
713.357	19.85073
713.55	20.63531
713.743	18.54972
713.936	25.38846
714.129	23.89034
714.322	31.31611
714.514	32.91835
714.707	32.62495
714.9	25.55877
715.093	23.70018
715.286	22.95137
715.479	28.12761
715.672	27.31289
715.864	27.96178
716.057	20.79594
716.25	20.07689
716.443	21.44672
716.636	26.17498
716.828	32.75993
717.021	34.48651
717.214	33.40546
717.406	35.64995
717.599	35.98676
717.792	38.04278
717.984	37.09869
718.177	36.53617
718.37	36.14328
718.562	33.60165
718.755	28.35337
718.947	28.61395
719.14	26.95118
719.333	34.96218
719.525	31.18483
719.718	28.97057
719.91	28.94172
720.103	29.10107
720.295	30.76223
720.487	26.00512
720.68	30.46851
720.872	34.11404
721.065	30.43255
721.257	28.60696
721.449	27.60436
721.642	36.46751
721.834	36.99076
722.026	37.64015
722.219	35.23073
722.411	35.2279
722.603	31.57908
722.796	32.4241
722.988	29.6283
723.18	32.95054
723.372	28.19456
723.565	31.08947
723.757	31.7747
723.949	36.33264
724.141	33.34016
724.333	29.26492
724.525	28.48896
724.717	32.16857
724.91	36.14282
725.102	32.42188
725.294	33.3355
725.486	32.13112
725.678	31.09116
725.87	27.2422
726.062	24.70056
726.254	26.52535
726.446	31.41029
726.638	27.24034
726.83	29.36053
727.022	27.79582
727.213	32.84674
727.405	31.67104
727.597	30.8867
727.789	35.579
727.981	34.11216
728.173	35.19573
728.365	29.9178
728.556	30.11044
728.748	29.42344
728.94	33.52662
729.132	35.61697
729.324	39.36387
729.515	43.63663
729.707	41.48252
729.899	38.9424
730.09	32.87844
730.282	30.59703
730.474	27.01499
730.665	29.65166
730.857	40.95647
731.049	47.37438
731.24	44.51077
731.432	41.71376
731.623	35.39266
731.815	35.49187
732.006	33.53249
732.198	39.22666
732.389	38.89562
732.581	41.96225
732.772	38.02663
732.964	38.64732
733.155	35.64737
733.347	39.32751
733.538	37.01891
733.729	39.30555
733.921	36.21196
734.112	36.47239
734.304	32.42723
734.495	34.18644
734.686	39.19572
734.877	45.25621
735.069	40.041
735.26	34.40903
735.451	22.51674
735.643	25.19338
735.834	25.26067
736.025	29.46145
736.216	27.2433
736.407	30.53239
736.599	31.58273
736.79	31.91048
736.981	30.73621
737.172	33.33946
737.363	33.75979
737.554	33.50018
737.745	36.23709
737.936	33.30659
738.127	30.96317
738.318	18.90642
738.509	20.17658
738.7	22.26279
738.891	27.96607
739.082	28.74802
739.273	26.10697
739.464	26.72675
739.655	24.1535
739.846	19.16873
740.037	18.22325
740.228	17.37642
740.419	24.86894
740.609	20.01277
740.8	24.90088
740.991	19.94877
741.182	22.8767
741.373	25.15801
741.563	24.41006
741.754	24.41499
741.945	25.1981
742.136	28.55449
742.326	29.07685
742.517	27.3808
742.708	26.66132
742.898	25.84637
743.089	22.55227
743.28	21.1166
743.47	25.44424
743.661	28.44873
743.851	35.91692
744.042	32.04533
744.233	34.807
744.423	30.11266
744.614	30.23896
744.804	23.20844
744.995	23.85733
745.185	28.26205
745.376	25.3257
745.566	26.30687
745.756	20.04648
745.947	25.03428
746.137	26.20625
746.328	21.45109
746.518	23.49897
746.708	16.39739
746.899	20.24127
747.089	23.21305
747.279	24.74174
747.47	33.12016
747.66	27.90185
747.85	29.95208
748.04	22.28973
748.231	25.68067
748.421	25.26077
748.611	31.68477
748.801	28.68724
748.991	25.85171
749.182	15.19284
749.372	9.09826
749.562	15.55308
749.752	22.65427
749.942	25.03206
750.132	17.66475
750.322	17.92569
750.512	16.5902
750.702	23.10539
750.892	23.13983
751.082	32.59003
751.272	33.99279
751.462	35.71797
751.652	35.10157
751.842	30.24793
752.032	24.64691
752.222	19.62531
752.412	18.35176
752.602	20.95804
752.792	27.41006
752.981	30.9589
753.171	33.20853
753.361	32.06643
753.551	32.07102
753.741	30.56849
753.93	32.59108
754.12	31.57959
754.31	35.42667
754.5	34.67301
754.689	36.92481
754.879	33.11043
755.069	31.71476
755.258	32.94842
755.448	34.57658
755.638	36.43261
755.827	31.44924
756.017	29.56169
756.206	27.31732
756.396	32.36696
756.586	31.94638
756.775	25.62011
756.965	22.65281
757.154	22.58333
757.344	26.8506
757.533	29.98062
757.723	29.16609
757.912	28.25453
758.101	24.77209
758.291	22.91601
758.48	24.44816
758.67	27.31218
758.859	33.37078
759.048	33.92322
759.238	28.35325
759.427	16.91873
759.616	10.20828
759.806	14.89664
759.995	26.92319
760.184	29.59593
760.373	30.02009
760.563	26.65948
760.752	27.70343
760.941	25.03336
761.13	23.60162
761.319	22.36044
761.509	24.25212
761.698	22.81763
761.887	23.92934
762.076	23.37086
762.265	31.55131
762.454	31.67672
762.643	30.18197
762.832	29.07188
763.021	25.39302
763.21	22.45828
763.399	20.79687
763.588	26.92173
763.777	32.39328
763.966	30.30778
764.155	24.66994
764.344	23.564
764.533	20.95846
764.722	18.09095
764.911	18.84311
765.1	16.85424
765.288	24.54338
765.477	21.08617
765.666	26.10694
765.855	24.60933
766.044	24.19059
766.232	23.66832
766.421	23.04885
766.61	31.87392
766.799	35.2257
766.987	38.02763
767.176	30.21199
767.365	24.77272
767.553	25.05884
767.742	26.26022
767.931	31.6058
768.119	26.82248
768.308	30.83403
768.497	26.79084
768.685	26.46523
768.874	22.58617
769.062	12.12742
769.251	16.03776
769.439	12.35654
769.628	23.69698
769.816	20.47053
770.005	20.17585
770.193	23.53361
770.382	23.53579
770.57	27.08933
770.758	26.1793
770.947	23.01751
771.135	19.5629
771.323	17.08371
771.512	20.47661
771.7	13.21028
771.888	9.88501
772.077	14.80124
772.265	28.06132
772.453	26.59532
772.642	21.7737
772.83	13.92287
773.018	12.22849
773.206	14.51129
773.394	20.63576
773.583	27.64494
773.771	19.82233
773.959	16.86024
774.147	11.05609
774.335	13.85791
774.523	13.27011
774.711	13.01169
774.899	11.61059
775.087	8.67833
775.275	11.96653
775.463	20.57517
775.651	24.06188
775.839	24.81387
776.027	21.97447
776.215	24.87763
776.403	19.85785
776.591	17.96825
776.779	13.6298
776.967	17.77039
777.155	17.8001
777.343	25.33384
777.531	20.99808
777.718	21.78414
777.906	17.27956
778.094	19.36646
778.282	14.47528
778.47	11.18541
778.657	19.46042
778.845	24.21923
779.033	35.87621
779.22	29.09832
779.408	33.72368
779.596	32.55515
779.783	38.48159
779.971	37.83077
780.159	34.60553
780.346	39.72398
780.534	42.55379
780.722	48.35079
780.909	51.24478
781.097	50.49633
781.284	47.17299
781.472	41.80161
781.659	53.72278
781.847	56.74932
782.034	54.75512
782.222	47.78517
782.409	47.84949
782.597	47.16788
782.784	42.63267
782.971	44.30004
783.159	52.89402
783.346	57.55867
783.533	52.21512
783.721	49.25377
783.908	41.59867
784.095	41.95783
784.283	39.8145
784.47	46.42825
784.657	50.06855
784.844	51.01496
785.032	50.20166
785.219	46.82019
785.406	51.63889
785.593	51.66786
785.78	55.45061
785.968	43.36765
786.155	40.04596
786.342	34.11247
786.529	39.28874
786.716	35.80841
786.903	36.45866
787.09	36.36928
787.277	38.09265
787.464	35.22909
787.651	32.81628
787.838	31.41809
788.025	28.91337
788.212	27.02087
788.399	25.9433
788.586	31.28714
788.773	32.75437
788.96	34.09932
789.147	28.46124
789.334	26.27859
789.521	18.84246
789.707	17.86783
789.894	17.63987
790.081	20.47587
790.268	19.39789
790.455	15.19336
790.641	8.47959
790.828	6.13358
791.015	9.65423
791.202	11.2837
791.388	19.10587
791.575	12.03407
791.762	9.78527
791.948	-0.64341
792.135	1.14844
792.322	1.86575
792.508	4.60419
792.695	1.96456
792.881	2.48576
793.068	-2.46982
793.254	3.10435
793.441	7.79662
793.627	12.49103
793.814	15.91395
794	16.17458
794.187	21.74425
794.373	14.31164
794.56	12.25912
794.746	4.9943
794.933	9.36291
795.119	13.82436
795.305	21.68308
795.492	14.93526
795.678	10.40841
795.864	10.95571
796.051	19.5595
796.237	23.43722
796.423	16.04173
796.61	15.87993
796.796	16.46866
796.982	15.55587
797.168	5.54925
797.355	3.42996
797.541	7.5035
797.727	14.73948
797.913	9.9159
798.099	8.74379
798.285	5.35388
798.471	4.05083
798.658	5.35394
798.844	8.02631
799.03	12.97944
799.216	9.58894
799.402	6.42756
799.588	10.82677
799.774	12.09815
799.96	21.38368
800.146	13.33442
800.332	9.61974
800.518	2.19153
800.704	0.39874
800.89	9.10318
801.075	5.55129
801.261	8.25705
801.447	3.39791
801.633	10.24304
801.819	10.24293
802.005	11.84008
802.19	9.36234
802.376	15.52137
802.562	18.94265
802.748	17.34585
802.934	16.14126
803.119	8.71148
803.305	13.56443
803.491	18.19352
803.676	20.99643
803.862	14.64392
804.048	5.54894
804.233	4.7008
804.419	9.55758
804.605	9.88364
804.79	11.64428
804.976	11.12102
805.161	15.13025
805.347	6.16565
805.532	6.72056
805.718	3.68882
805.903	11.54571
806.089	6.03794
806.274	6.91857
806.46	3.43075
806.645	4.11526
806.831	7.40767
807.016	10.27564
807.201	15.58877
807.387	10.9265
807.572	9.10172
807.757	6.26555
807.943	8.61386
808.128	13.56653
808.313	9.29723
808.499	10.01365
808.684	10.7976
808.869	10.50404
809.054	9.26596
809.24	-0.87031
809.425	7.80022
809.61	4.24684
809.795	6.75605
809.98	4.47292
810.165	-0.51259
810.35	1.7361
810.536	1.41044
810.721	6.85213
810.906	-0.02403
811.091	1.63735
811.276	3.33306
811.461	8.48205
811.646	-0.74036
811.831	-1.84971
812.016	3.59428
812.201	5.48448
812.386	0.85512
812.571	-2.04735
812.756	-0.28699
812.941	7.7962
813.125	3.10256
813.31	1.21179
813.495	-5.143
813.68	0.62665
813.865	2.1587
814.05	6.23369
814.234	1.83396
814.419	-1.32696
814.604	-2.27228
814.789	-0.34978
814.973	3.30021
815.158	3.85447
815.343	10.01512
815.528	13.63342
815.712	10.92776
815.897	4.40882
816.081	2.68129
816.266	3.56149
816.451	8.38576
816.635	9.19976
816.82	12.65576
817.004	15.9456
817.189	13.76249
817.374	12.16374
817.558	0.62631
817.743	1.83184
817.927	0.36562
818.111	7.79832
818.296	11.35168
818.48	15.42622
818.665	15.52364
818.849	5.81037
819.034	4.34313
819.218	2.38844
819.402	8.90811
819.587	2.45535
819.771	-3.60843
819.955	-3.35056
820.14	2.28814
820.324	12.35762
820.508	12.00083
820.692	11.54397
820.877	4.96249
821.061	2.06161
821.245	7.76549
821.429	7.30915
821.613	12.29774
821.798	7.6371
821.982	8.41943
822.166	4.18056
822.35	3.69051
822.534	3.98377
822.718	6.69009
822.902	2.12777
823.086	4.6693
823.27	4.53855
823.454	5.32064
823.638	4.53893
823.822	0.56178
824.006	6.59232
824.19	6.46237
824.374	8.22274
824.558	4.31095
824.742	5.25367
824.926	9.52416
825.11	9.65451
825.294	5.28902
825.477	3.42955
825.661	4.47361
825.845	5.71241
826.029	4.01796
826.213	3.98538
826.396	9.1679
826.58	10.015
826.764	6.42847
826.948	2.32109
827.131	3.43018
827.315	5.58142
827.499	2.84367
827.682	1.44242
827.866	5.09291
828.05	12.49043
828.233	10.99059
828.417	11.54315
828.6	6.13422
828.784	8.31666
828.967	2.45143
829.151	10.4363
829.335	6.36295
829.518	5.18965
829.701	0.56255
829.885	3.72534
830.068	7.01748
830.252	2.51892
830.435	2.77875
830.619	-3.08892
830.802	-1.1329
830.985	-2.92553
831.169	2.15948
831.352	2.06149
831.535	-3.90421
831.719	-0.12286
831.902	2.94038
832.085	11.70667
832.269	4.76326
832.452	2.80797
832.635	1.40937
832.818	8.05961
833.002	5.38697
833.185	0.79079
833.368	1.73763
833.551	0.3036
833.734	4.1173
833.917	-4.2929
834.1	2.74854
834.284	9.04053
834.467	16.14356
834.65	12.52447
834.833	11.31644
835.016	9.26442
835.199	10.66585
835.382	7.70138
835.565	12.3291
835.748	11.22082
835.931	11.64388
836.114	8.84219
836.297	4.99636
836.479	1.18264
836.662	4.01977
836.845	4.93224
837.028	7.08389
837.211	-3.31615
837.394	-0.28438
837.577	5.22208
837.759	13.8591
837.942	17.70227
838.125	11.1198
838.308	10.89227
838.49	9.06698
838.673	7.6978
838.856	7.63398
839.039	5.5506
839.221	4.50778
839.404	-0.51307
839.587	-2.17554
839.769	0.82294
839.952	0.17089
840.134	8.87596
840.317	11.32015
840.499	12.20055
840.682	7.34173
840.865	4.70184
841.047	3.10398
841.23	2.80959
841.412	3.23295
841.595	3.95066
841.777	-0.025
841.959	0.00848
842.142	6.16623
842.324	4.99331
842.507	3.20032
842.689	-4.6201
842.871	-0.48235
843.054	-1.29695
843.236	2.90804
843.418	5.61466
843.601	9.59094
843.783	5.87633
843.965	4.27973
844.147	4.50714
844.33	9.78651
844.512	8.31942
844.694	9.13553
844.876	5.90847
845.059	12.68849
845.241	7.11459
845.423	4.99612
845.605	-6.02
845.787	-0.28354
845.969	1.5744
846.151	-0.05831
846.333	-1.29697
846.515	4.56705
846.697	9.68554
846.879	10.04436
847.061	10.7295
847.243	15.78295
847.425	19.07437
847.607	20.21463
847.789	22.59095
847.971	25.84547
848.153	30.92941
848.335	28.74747
848.517	28.84767
848.699	28.29196
848.881	31.45262
849.062	35.22905
849.244	32.09971
849.426	29.4591
849.608	27.05022
849.789	28.93904
849.971	30.37097
850.153	26.55921
850.335	22.03277
850.516	21.6453
850.698	23.79698
850.88	27.70455
851.061	31.44481
851.243	28.99929
851.425	27.27645
851.606	26.89258
851.788	29.14064
851.969	31.51934
852.151	25.25914
852.333	23.50005
852.514	19.13191
852.696	22.45726
852.877	23.95599
853.059	31.21729
853.24	26.94481
853.422	25.34935
853.603	20.82333
853.784	25.87858
853.966	23.53212
854.147	23.40792
854.329	21.54752
854.51	29.5011
854.691	27.63892
854.873	27.96743
855.054	29.42857
855.235	30.80103
855.416	29.10588
855.598	16.9215
855.779	10.07665
855.96	4.30966
856.141	8.61348
856.323	11.12206
856.504	17.41205
856.685	16.49694
856.866	13.72752
857.047	11.60989
857.228	4.11537
857.409	6.49465
857.591	2.4202
857.772	10.82815
857.953	10.20906
858.134	14.18452
858.315	3.49614
858.496	8.09329
858.677	6.62683
858.858	10.34097
859.039	6.19965
859.22	10.08112
859.401	13.24288
859.582	8.2887
859.762	6.46067
859.943	4.76592
860.124	15.58691
860.305	7.0473
860.486	5.25444
860.667	-1.32782
860.848	2.42105
861.028	4.89846
861.209	8.5163
861.39	9.6897
861.571	9.98207
861.751	7.99167
861.932	4.43877
862.113	11.64577
862.293	9.59345
862.474	15.65679
862.655	2.58279
862.835	11.2523
863.016	6.98176
863.197	13.2727
863.377	5.19096
863.558	3.85479
863.738	1.1173
863.919	3.10486
864.099	9.91747
864.28	18.84186
864.46	13.88745
864.641	7.27024
864.821	-3.05598
865.002	-0.28514
865.182	0.33417
865.363	2.74657
865.543	5.45202
865.723	11.93943
865.904	9.00621
866.084	9.91619
866.264	-0.61168
866.445	1.27836
866.625	-5.10778
866.805	-0.54584
866.986	-1.16499
867.166	-1.36052
867.346	2.48606
867.526	0.36682
867.707	3.0709
867.887	-2.01447
868.067	0.62616
868.247	4.34101
868.427	11.41272
868.607	10.43471
868.788	1.50549
868.968	-6.60844
869.148	-10.58391
869.328	-4.5534
869.508	-3.93449
869.688	0.46483
869.868	-0.67587
870.048	-0.6762
870.228	4.40808
870.408	6.82147
870.588	7.86485
870.768	6.78967
870.948	5.41849
871.128	2.54885
871.307	3.98249
871.487	-1.68694
871.667	6.62629
871.847	5.09575
872.027	10.6344
872.207	9.68962
872.387	6.72276
872.566	5.77801
872.746	0.82245
872.926	-3.51306
873.106	0.79016
873.285	6.33206
873.465	10.60235
873.645	9.46284
873.824	9.72433
874.004	10.01777
874.184	4.89883
874.363	1.05128
874.543	-2.99181
874.723	1.27824
874.902	-1.26437
875.082	5.19118
875.261	5.22145
875.441	4.60249
875.62	1.79876
875.8	-4.65295
875.979	-1.19816
876.159	-0.48111
876.338	2.19179
876.518	5.35295
876.697	3.10412
876.876	8.02629
877.056	3.56155
877.235	-0.97169
877.415	-9.18573
877.594	-5.53564
877.773	-4.26174
877.953	2.84421
878.132	4.08266
878.311	3.10334
878.49	-1.88406
878.67	-8.76029
878.849	-2.59851
879.028	0.95444
879.207	11.3493
879.387	14.28292
879.566	13.23971
879.745	7.04863
879.924	3.3977
880.103	3.8871
880.282	2.486
880.461	7.73617
880.64	4.76977
880.819	6.53047
880.998	0.20465
881.178	1.80164
881.357	2.74606
881.536	0.92042
881.715	-3.31863
881.893	-3.48054
882.072	-2.14386
882.251	6.59406
882.43	3.72479
882.609	3.26747
882.788	-1.23171
882.967	-2.3728
883.146	4.05026
883.325	8.80958
883.503	5.74429
883.682	3.75542
883.861	-0.64474
884.04	5.41923
884.219	9.29783
884.397	8.48231
884.576	8.12391
884.755	2.64816
884.933	9.10129
885.112	12.36183
885.291	10.30813
885.469	5.90973
885.648	5.28896
885.827	12.75531
886.005	9.91858
886.184	7.8004
886.363	4.14892
886.541	6.5615
886.72	4.21502
886.898	5.2578
887.077	9.06932
887.255	8.38423
887.434	-0.09222
887.612	-4.88188
887.791	-3.1539
887.969	7.442
888.147	7.27884
888.326	7.47403
888.504	8.02579
888.682	8.58021
888.861	7.6026
889.039	1.37751
889.218	10.07988
889.396	10.3733
889.574	13.82765
889.752	4.57053
889.931	-2.177
890.109	-5.82698
890.287	-2.56738
890.465	5.84269
890.643	8.77593
890.822	3.98469
891	9.26155
891.178	9.16538
891.356	10.43645
891.534	8.12674
891.712	12.39325
891.89	17.83754
892.068	12.62105
892.247	9.36447
892.425	8.31977
892.603	8.2872
892.781	8.28642
892.959	-2.14196
893.137	0.17236
893.314	-5.04305
893.492	5.12572
893.67	6.94957
893.848	8.90555
894.026	1.7016
894.204	-3.93521
894.382	-0.70687
894.56	-0.70721
894.738	-1.947
894.915	-4.65382
895.093	-0.74186
895.271	3.46331
895.449	5.45105
895.626	10.6023
895.804	14.47941
895.982	17.25057
896.16	17.8691
896.337	11.90592
896.515	7.47303
896.693	-7.12969
896.87	-0.64332
897.048	-2.14268
897.225	7.14624
897.403	3.82152
897.581	7.79678
897.758	10.14374
897.936	8.38378
898.113	0.92087
898.291	4.30968
898.468	8.08958
898.646	9.45838
898.823	4.50476
899.001	5.05931
899.178	5.74411
899.356	4.53865
899.533	4.92986
899.71	12.29773
899.888	11.84088
900.065	7.73517
900.242	6.26762
900.42	5.19227
900.597	1.9321
900.774	-2.73003
900.952	-1.13215
901.129	2.61657
901.306	3.56205
901.483	-0.48111
901.661	-3.5131
901.838	-0.61141
902.015	3.69225
902.192	7.83324
902.369	2.12796
902.546	-0.28448
902.723	-1.03532
902.901	2.9743
903.078	1.86626
903.255	-1.16523
903.432	0.72486
903.609	1.37661
903.786	2.45249
903.963	-3.25071
904.14	-1.3602
904.317	-3.34918
904.494	0.56167
904.671	4.7032
904.848	5.12697
905.024	0.40002
905.201	-5.37145
905.378	3.55906
905.555	7.89485
905.732	11.77409
905.909	-2.26918
906.086	-2.52954
906.262	-1.09691
906.439	10.99477
906.616	12.36349
906.793	8.22533
906.969	4.11576
907.146	5.4849
907.323	0.65931
907.5	-1.88362
907.676	-4.81733
907.853	-0.31784
908.03	-0.7417
908.206	2.09511
908.383	2.87751
908.559	3.26862
908.736	-3.44742
908.912	-0.15574
909.089	1.99522
909.266	4.99427
909.442	2.09358
909.619	-1.65534
909.795	-2.0139
909.972	-4.3606
910.148	1.01917
910.324	3.59448
910.501	13.86364
910.677	12.95141
910.854	13.50497
911.03	3.72448
911.206	4.04874
911.383	1.60442
911.559	3.65764
911.735	-1.78507
911.912	-1.23096
912.088	-2.20847
912.264	1.05116
912.44	3.10483
912.617	9.16686
912.793	9.26462
912.969	4.21184
913.145	-0.51407
913.321	0.3009
913.498	7.92627
913.674	9.45898
913.85	5.02653
914.026	-1.68547
914.202	-5.59734
914.378	-2.27326
914.554	-1.10017
914.73	-4.55413
914.906	-4.03258
915.082	-6.11917
915.258	3.72483
915.434	4.05079
915.61	6.59382
915.786	2.77924
915.962	3.62734
916.138	10.21138
916.314	2.32174
916.49	3.98314
916.665	1.53961
916.841	6.10409
917.017	1.57379
917.193	-2.20828
917.369	-5.5975
917.545	-5.33753
917.72	-4.68559
917.896	3.69017
918.072	-1.00384
918.247	0.16961
918.423	-4.58892
918.599	5.81096
918.775	7.11517
918.95	3.69551
919.126	-5.39912
919.301	-8.03988
919.477	-3.83778
919.653	4.76672
919.828	1.08312
920.004	3.75473
920.179	2.90359
920.355	6.09826
920.53	3.32882
920.706	-1.45888
920.881	-4.91387
921.057	-4.68555
921.232	3.04025
921.408	11.12426
921.583	9.42889
921.759	-1.65429
921.934	-2.92642
922.109	1.21334
922.285	7.3743
922.46	4.53928
922.635	3.82275
922.811	2.38818
922.986	2.09459
923.161	-0.12234
923.336	-3.08724
923.512	-8.62888
923.687	-6.90111
923.862	-6.08659
924.037	-2.98955
924.212	-1.13176
924.388	0.65998
924.563	4.99395
924.738	-0.84142
924.913	0.49507
925.088	-7.29403
925.263	-1.55562
925.438	-1.42517
925.613	3.62703
925.788	-3.80663
925.963	-3.93689
926.138	-9.47873
926.313	-4.49034
926.488	-2.14387
926.663	1.28007
926.838	-2.11092
927.013	-4.81602
927.188	-3.21976
927.363	1.6383
927.538	0.49737
927.713	2.12738
927.888	7.37592
928.062	6.0399
928.237	3.04045
928.412	0.62681
928.587	6.59098
928.761	3.13553
928.936	1.27883
929.111	-4.58814
929.286	1.34528
929.46	-0.6763
929.635	0.23624
929.81	-1.75236
929.984	-0.28605
930.159	-0.38413
930.334	2.22389
930.508	-0.05741
930.683	1.99694
930.857	7.08239
931.032	5.64763
931.206	6.07118
931.381	5.64661
931.556	13.27231
931.73	22.10862
931.904	15.16593
932.079	7.01996
932.253	0.33453
932.428	3.39838
932.602	2.81007
932.777	2.192
932.951	0.33398
933.125	6.20096
933.3	1.18048
933.474	6.46239
933.648	6.26742
933.823	7.44098
933.997	0.62731
934.171	0.07303
934.345	0.59444
934.52	1.37664
934.694	0.2696
934.868	0.39968
935.042	3.20323
935.217	1.27939
935.391	1.70338
935.565	-1.71943
935.739	-5.72794
935.913	-5.95604
936.087	-4.03285
936.261	2.51865
936.435	6.00627
936.609	3.72398
936.783	6.23381
936.957	8.35179
937.131	11.28558
937.305	6.91748
937.479	2.02899
937.653	-2.17557
937.827	-3.90322
938.001	-4.9792
938.175	-2.73013
938.349	2.843
938.523	2.19146
938.697	-2.43735
938.87	-7.97774
939.044	-3.7405
939.218	3.55994
939.392	7.60272
939.566	7.60252
939.739	2.90979
939.913	2.51808
940.087	0.07369
940.261	3.10535
940.434	1.08395
940.608	-0.67584
940.782	-4.39204
940.955	-8.00989
941.129	-6.70646
941.302	-3.15335
941.476	-1.65515
941.65	-3.5781
941.823	-1.03587
941.997	3.16992
942.17	4.34295
942.344	5.15785
942.517	9.29816
942.691	8.12532
942.864	10.86272
943.038	2.81093
943.211	6.75508
943.385	-7.8111
943.558	-7.97179
943.731	-9.6347
943.905	4.70284
944.078	7.17758
944.251	8.84047
944.425	3.95218
944.598	4.89799
944.771	5.25633
944.945	5.41972
945.118	3.78963
945.291	5.87606
945.464	1.96416
945.638	-0.48038
945.811	-1.16701
945.984	4.69981
946.157	7.37255
946.33	-1.13404
946.503	-3.44734
946.677	-1.55636
946.85	12.03521
947.023	7.73196
947.196	10.79653
947.369	0.36685
947.542	3.85488
947.715	-0.48134
947.888	1.05126
948.061	-1.88281
948.234	-0.2858
948.407	-0.05756
948.58	5.28766
948.753	1.80011
948.926	6.52721
949.099	-0.67607
949.271	1.01886
949.444	-3.61041
949.617	-0.93731
949.79	-2.69751
949.963	0.00784
950.136	4.44116
950.308	6.91827
950.481	1.24714
950.654	-1.98
950.827	-4.62058
950.999	-0.67725
951.172	0.95283
951.345	0.92105
951.517	1.37843
951.69	1.44354
951.863	2.71447
952.035	7.76516
952.208	13.5023
952.381	10.53548
952.553	3.56078
952.726	-4.03445
952.898	1.44231
953.071	-0.54554
953.243	1.24766
953.416	-6.18251
953.588	-4.32516
953.761	-9.50917
953.933	-3.51332
954.106	-1.98147
954.278	3.59331
954.45	2.06129
954.623	2.81101
954.795	-0.12237
954.967	-2.50235
955.14	-3.41447
955.312	-2.24126
955.484	-1.55642
955.657	-1.19817
955.829	-1.62197
956.001	-4.03455
956.173	-0.93725
956.346	1.80178
956.518	8.6157
956.69	3.82336
956.862	1.08463
957.034	2.06236
957.207	-6.543
957.379	-2.27326
957.551	-4.62068
957.723	5.87582
957.895	1.80133
958.067	0.20408
958.239	-0.57871
958.411	0.95337
958.583	-1.26272
958.755	-1.71903
958.927	-4.88066
959.099	2.87585
959.271	-0.09032
959.443	2.25648
959.615	-3.93539
959.787	1.89914
959.959	4.83277
960.13	3.07092
960.302	0.43065
960.474	-3.3507
960.646	2.94165
960.818	4.21395
960.99	3.49638
961.161	3.07254
961.333	4.37598
961.505	7.73407
961.677	1.41134
961.848	-2.07718
962.02	-3.02222
962.192	-0.31756
962.363	5.02715
962.535	3.52735
962.707	3.69013
962.878	3.98452
963.05	9.16809
963.221	10.27656
963.393	4.01862
963.564	-0.93676
963.736	-3.57723
963.907	-9.47732
964.079	-10.74812
964.25	-1.68691
964.422	9.03816
964.593	9.62473
964.765	0.00938
964.936	-4.62042
965.108	-5.40284
965.279	0.10613
965.45	6.59335
965.622	7.60354
965.793	5.41955
965.964	2.03027
966.136	0.5959
966.307	1.67137
966.478	-6.08969
966.65	-0.22151
966.821	4.27685
966.992	3.82183
967.163	0.43126
967.334	-7.62042
967.506	3.13705
967.677	7.86344
967.848	7.50544
968.019	4.01813
968.19	2.02955
968.361	5.35438
968.532	3.85427
968.703	5.71128
968.874	5.35264
969.045	7.11278
969.216	5.02848
969.387	9.72165
969.558	4.79907
969.729	1.37572
969.9	-5.89143
970.071	-4.71739
970.242	-4.32605
970.413	-3.54517
970.584	-1.58936
970.755	-2.95829
970.926	-5.30462
971.097	-7.39049
971.267	-1.42467
971.438	0.07397
971.609	-3.25092
971.78	-5.76115
971.951	-10.77984
972.121	0.66116
972.292	-1.00177
972.463	9.26601
972.633	8.74402
972.804	6.13618
972.975	5.22313
973.145	0.23647
973.316	6.72378
973.487	0.17127
973.657	8.29002
973.828	1.2153
973.998	6.88758
974.169	-8.07872
974.339	-3.05863
974.51	-5.95958
974.68	-4.55669
974.851	-0.9359
975.021	0.8567
975.192	9.36521
975.362	2.35472
975.533	1.01827
975.703	0.36573
975.874	2.71333
976.044	3.59336
976.214	-0.51312
976.385	3.20163
976.555	5.22291
976.725	7.66713
976.896	0.88717
977.066	0.36492
977.236	-0.84051
977.406	1.31157
977.577	-1.97969
977.747	-4.55453
977.917	-3.73939
978.087	0.0083
978.257	5.90869
978.427	3.07295
978.598	4.34453
978.768	1.41013
978.938	4.01724
979.108	1.96343
979.278	6.20179
979.448	5.87601
979.618	3.52919
979.788	-0.67664
979.958	-4.94632
980.128	-5.76185
980.298	-2.8601
980.468	-0.5784
980.638	0.98673
980.808	-3.96815
980.978	1.67111
981.148	5.09359
981.317	5.48387
981.487	1.96312
981.657	0.39862
981.827	1.8008
981.997	3.62623
982.167	4.47397
982.336	0.72468
982.506	-0.35127
982.676	-3.70842
982.846	-4.55513
983.015	-3.64158
983.185	-5.62945
983.355	-2.69582
983.524	-6.02154
983.694	-5.14223
983.864	-5.37085
984.033	-0.08956
984.203	5.90808
984.372	8.97243
984.542	3.26755
984.712	-2.82842
984.881	-2.95876
985.051	-2.04585
985.22	2.25738
985.39	3.03929
985.559	0.13884
985.728	3.85579
985.898	-2.04416
986.067	-0.41459
986.237	-8.85751
986.406	-4.42394
986.576	0.3027
986.745	3.26857
986.914	-3.12057
987.084	-2.20707
987.253	-1.16373
987.422	-0.12228
987.591	-2.82933
987.761	-10.62237
987.93	-3.25523
988.099	0.85246
988.268	6.10297
988.438	1.93172
988.607	-5.04442
988.776	-9.80417
988.945	-5.82708
989.114	-5.24061
989.283	2.25726
989.452	1.6379
989.621	3.85466
989.791	2.64829
989.96	6.16751
990.129	8.93901
990.298	12.39393
990.467	5.32127
990.636	7.1788
990.805	-0.64395
990.974	5.22584
991.142	-4.58523
991.311	-0.9341
991.48	-6.08631
991.649	-3.70786
991.818	-1.2307
991.987	0.49704
992.156	7.05047
992.325	4.93149
992.493	5.0598
992.662	2.25497
992.831	-0.9377
993	-0.34866
993.168	-3.18446
993.337	4.11494
993.506	3.46278
993.675	3.56068
993.843	-1.00279
994.012	2.19014
994.181	7.53606
994.349	10.95953
994.518	9.49495
994.686	9.49272
994.855	4.43965
995.024	0.26679
995.192	-4.58782
995.361	-6.25056
995.529	-5.76159
995.698	-5.10964
995.866	-4.9138
996.035	-2.73027
996.203	0.72556
996.371	11.35
996.54	7.66693
996.708	5.67758
996.877	-2.89388
997.045	-7.61969
997.213	-11.10753
997.382	-7.78189
997.55	1.7348
997.718	5.05947
997.887	5.94005
998.055	2.87662
998.223	-0.578
998.391	-2.8276
998.56	2.68053
998.728	4.11462
998.896	5.35372
999.064	3.85352
999.232	10.07816
999.401	6.81776
999.569	2.80928
999.737	-3.2523
999.905	-0.02494
1000.073	-2.59939
1000.241	-2.17563
1000.409	-6.05434
1000.577	-0.93692
1000.745	0.2043
1000.913	4.44119
1001.081	5.71301
1001.249	8.4491
1001.417	9.39515
1001.585	12.45779
1001.753	9.19999
1001.921	2.02738
1002.089	3.23185
1002.256	0.39502
1002.424	1.27621
1002.592	-5.33825
1002.76	-1.19827
1002.928	7.27879
1003.096	4.80121
1003.263	-4.58544
1003.431	-2.85863
1003.599	0.17293
1003.767	3.56146
1003.934	0.98611
1004.102	0.07349
1004.27	2.74738
1004.437	1.89901
1004.605	-4.22775
1004.773	1.60623
1004.94	0.82451
1005.108	3.39727
1005.275	1.11588
1005.443	1.37553
1005.61	-1.68738
1005.778	-2.89295
1005.945	-6.15249
1006.113	-1.88237
1006.28	-2.43663
1006.448	6.59325
1006.615	1.08305
1006.783	1.18079
1006.95	-10.03294
1007.118	-2.99096
1007.285	-7.00001
1007.452	-1.32884
1007.62	1.21366
1007.787	6.62402
1007.954	6.36359
1008.122	0.75735
1008.289	1.67138
1008.456	1.41132
1008.623	3.49725
1008.791	-0.18704
1008.958	-4.55544
1009.125	-9.15062
1009.292	-11.43253
1009.459	-8.46587
1009.627	-2.17566
1009.794	-1.42508
1009.961	-7.03178
1010.128	-7.749
1010.295	-1.71853
1010.462	6.98462
1010.629	5.61574
1010.796	-3.02393
1010.963	-5.69672
1011.13	-1.29656
1011.297	4.11513
1011.464	4.99462
1011.631	-0.15536
1011.798	-1.26374
1011.965	-4.16438
1012.132	1.37688
1012.299	2.35481
1012.466	3.43061
1012.633	-1.36171
1012.799	-0.02519
1012.966	0.39882
1013.133	-0.18648
1013.3	1.01999
1013.467	-0.15379
1013.633	-0.57798
1013.8	-3.60991
1013.967	-1.88254
1014.134	-1.58904
1014.3	-1.42601
1014.467	-1.71904
1014.634	-3.47986
1014.8	-5.23963
1014.967	-10.09718
1015.134	-3.38182
1015.3	5.22354
1015.467	14.09108
1015.633	13.66746
1015.8	5.64789
1015.966	0.75769
1016.133	-3.21877
1016.3	6.04238
1016.466	8.55155
1016.632	12.43012
1016.799	-0.93756
1016.965	1.34329
1017.132	1.7992
1017.298	8.9378
1017.465	2.61641
1017.631	0.9868
1017.797	-0.51268
1017.964	-0.51332
1018.13	-1.06747
1018.296	-4.09978
1018.463	-3.87171
1018.629	-0.08924
1018.795	-1.36031
1018.961	-6.70616
1019.128	-11.01011
1019.294	-2.37159
1019.46	3.59355
1019.626	7.1784
1019.792	4.40781
1019.959	11.25478
1020.125	6.17074
1020.291	5.32378
1020.457	0.04149
1020.623	0.10588
1020.789	3.78941
1020.955	-1.23034
1021.121	3.59331
1021.287	-2.04649
1021.453	3.72311
1021.619	4.60544
1021.785	5.94175
1021.951	7.99567
1022.117	6.75495
1022.283	5.64691
1022.449	1.73497
1022.615	0.85501
1022.781	-2.0785
1022.946	-3.93623
1023.112	-3.80625
1023.278	4.14701
1023.444	7.01509
1023.61	8.32114
1023.775	3.43163
1023.941	-0.48086
1024.107	-3.21995
1024.273	0.69326
1024.438	2.81316
1024.604	8.14959
1024.77	-4.17219
1024.935	-4.23771
1025.101	-5.04301
1025.267	4.66941
1025.432	9.82124
1025.598	2.48714
1025.763	0.5965
1025.929	-0.12186
1026.095	4.8317
1026.26	4.11394
1026.426	1.99464
1026.591	-1.9487
1026.757	-3.02366
1026.922	-5.56591
1027.087	-3.18643
1027.253	0.36653
1027.418	4.63628
1027.584	0.95179
1027.749	2.35346
1027.914	6.59397
1028.08	9.9526
1028.245	5.32431
1028.41	2.06295
1028.576	2.12806
1028.741	11.70879
1028.906	9.13296
1029.072	4.86224
1029.237	-1.94816
1029.402	-5.6957
1029.567	-0.12108
1029.732	4.76824
1029.898	7.6684
1030.063	4.18035
1030.228	-4.42412
1030.393	-2.6647
1030.558	-2.33907
1030.723	0.62637
1030.888	-2.95874
1031.053	1.86629
1031.218	0.72567
1031.383	4.34381
1031.548	3.20342
1031.713	8.28722
1031.878	8.87439
1032.043	5.67936
1032.208	9.20275
1032.373	10.66795
1032.538	13.40643
1032.703	3.30045
1032.868	3.46752
1033.033	-4.87762
1033.198	-0.80406
1033.362	-4.55524
1033.527	2.71334
1033.692	2.35491
1033.857	-0.70913
1034.021	0.33411
1034.186	2.29007
1034.351	9.49319
1034.516	6.88556
1034.68	-0.38423
1034.845	-7.45687
1035.01	-4.75058
1035.174	-3.64267
1035.339	-0.57904
1035.504	-0.41714
1035.668	11.84127
1035.833	14.05774
1035.997	13.69959
1036.162	8.97352
1036.326	0.13883
1036.491	-5.66339
1036.655	-5.37276
1036.82	5.48215
1036.984	12.97844
1037.149	5.0912
1037.313	-1.68761
1037.478	-8.89016
1037.642	-3.47851
1037.807	-1.22975
1037.971	0.88907
1038.135	-0.51312
1038.3	-1.4582
1038.464	1.31238
1038.628	3.78806
1038.792	5.09239
1038.957	8.74105
1039.121	4.66809
1039.285	4.11335
1039.449	1.24663
1039.614	0.85494
1039.778	-6.02064
1039.942	-11.49658
1040.106	-12.76745
1040.27	-4.52317
1040.434	0.65979
1040.599	6.39804
1040.763	12.69111
1040.927	13.24534
1041.091	10.40831
1041.255	1.01903
1041.419	1.67029
1041.583	-1.7521
1041.747	2.81056
1041.911	-2.4373
1042.075	-0.74288
1042.239	-0.9717
1042.403	2.25529
1042.567	11.11977
1042.731	8.35056
1042.894	5.2873
1043.058	-1.13187
1043.222	-7.4215
1043.386	-5.46634
1043.55	-7.1939
1043.714	1.7043
1043.877	0.95441
1044.041	1.34535
1044.205	-1.49129
1044.369	-1.52435
1044.532	-5.17478
1044.696	-0.70861
1044.86	-0.44686
1045.023	3.95324
1045.187	-2.33826
1045.351	2.25851
1045.514	5.19179
1045.678	7.3757
1045.841	5.41869
