Data from H2O_Subt9__6__00046.txt Node

Date: Tue Nov 04 10:20:32 EST 2025
User: brett
Spectrometer: USB4F03499
Trigger mode: 4
Integration Time (sec): 3.000000E-2
Scans to average: 15
Electric dark correction enabled: true
Nonlinearity correction enabled: true
Boxcar width: 1
XAxis mode: Wavelengths
Number of Pixels in Spectrum: 3648
>>>>>Begin Spectral Data<<<<<
345.386	-11.98132
345.605	-11.98132
345.824	-6.69591
346.044	-5.84718
346.263	-4.57243
346.482	-7.18152
346.701	-2.97397
346.92	1.81777
347.139	3.28461
347.358	-3.85121
347.577	-1.4376
347.796	-2.15482
348.015	5.82844
348.234	-0.52993
348.453	2.30541
348.672	1.00127
348.891	-0.13887
349.11	7.68258
349.329	6.8676
349.548	9.18185
349.767	8.33894
349.986	19.22077
350.205	26.32796
350.424	26.42444
350.643	23.91957
350.862	23.42246
351.08	19.40924
351.299	18.03888
351.518	17.52325
351.737	22.27747
351.956	20.19232
352.174	24.98143
352.393	25.24611
352.612	26.54803
352.831	27.66047
353.049	27.46497
353.268	29.15908
353.487	32.74196
353.705	30.78817
353.924	34.95677
354.143	30.29532
354.361	33.51877
354.58	29.84198
354.798	31.04437
355.017	31.79489
355.236	34.07419
355.454	32.83576
355.673	35.40348
355.891	33.90388
356.11	37.03158
356.328	33.97472
356.547	38.79358
356.765	40.03114
356.984	40.87822
357.202	40.42344
357.42	37.91501
357.639	37.91049
357.857	37.06022
358.076	39.56787
358.294	48.52893
358.512	57.70917
358.731	56.56849
358.949	51.93588
359.167	48.8361
359.386	53.55881
359.604	53.38813
359.822	56.91533
360.04	59.31845
360.259	59.61724
360.477	54.63575
360.695	49.45891
360.913	55.00002
361.131	56.33099
361.35	52.78088
361.568	45.39042
361.786	41.96721
362.004	49.82164
362.222	52.61861
362.44	56.50189
362.658	57.07768
362.876	55.31942
363.094	52.13065
363.312	50.02475
363.53	50.08826
363.749	51.67818
363.967	50.11399
364.184	49.16814
364.402	49.23937
364.62	53.50325
364.838	52.01038
365.056	47.80015
365.274	37.28229
365.492	35.68729
365.71	34.32137
365.928	34.03154
366.146	32.20706
366.364	28.20779
366.581	27.55547
366.799	24.88919
367.017	31.24338
367.235	30.00566
367.453	30.81633
367.67	25.04988
367.888	21.56352
368.106	20.15715
368.323	13.89899
368.541	8.55517
368.759	12.63375
368.977	19.57422
369.194	31.17582
369.412	27.69122
369.629	23.94116
369.847	22.24286
370.065	21.59182
370.282	23.74379
370.5	21.46524
370.717	22.37441
370.935	24.49127
371.152	28.95165
371.37	34.09571
371.588	37.8077
371.805	37.844
372.022	27.58543
372.24	29.3125
372.457	27.51701
372.675	38.40517
372.892	33.51749
373.11	30.81534
373.327	34.29522
373.544	35.69918
373.762	40.8435
373.979	33.05611
374.196	32.63182
374.414	31.5922
374.631	36.96842
374.848	41.78366
375.066	46.1475
375.283	46.82854
375.5	39.60317
375.717	39.57293
375.935	38.10615
376.152	46.98634
376.369	44.50938
376.586	44.43982
376.803	42.43092
377.02	47.96519
377.238	51.1633
377.455	48.19557
377.672	44.12853
377.889	40.28507
378.106	38.53459
378.323	43.84235
378.54	47.12504
378.757	51.15617
378.974	44.73934
379.191	41.98001
379.408	41.03752
379.625	35.56223
379.842	36.24978
380.059	40.61389
380.276	48.69518
380.493	47.41531
380.71	44.22163
380.927	42.25949
381.143	46.53164
381.36	46.72178
381.577	51.68077
381.794	45.55284
382.011	42.68903
382.228	40.95147
382.444	42.25743
382.661	51.28098
382.878	47.4494
383.095	53.10954
383.311	50.96196
383.528	53.50328
383.745	49.14703
383.962	48.46399
384.178	49.01395
384.395	49.24049
384.612	46.92386
384.828	46.33629
385.045	49.94384
385.261	47.96249
385.478	46.53127
385.695	39.8271
385.911	38.32713
386.128	45.62046
386.344	46.47185
386.561	48.94619
386.777	45.07023
386.994	52.42516
387.21	50.99575
387.427	49.50241
387.643	48.10622
387.86	54.51737
388.076	61.45263
388.292	58.44504
388.509	55.61528
388.725	41.9662
388.942	40.77211
389.158	35.4286
389.374	41.51468
389.591	42.03539
389.807	44.70606
390.023	47.189
390.239	47.97323
390.456	47.25182
390.672	42.46718
390.888	42.94631
391.104	44.31818
391.321	48.71109
391.537	49.07551
391.753	49.16665
391.969	41.99888
392.185	43.65995
392.401	48.3577
392.618	54.15857
392.834	53.92638
393.05	47.67254
393.266	43.9222
393.482	43.20425
393.698	43.43034
393.914	51.24341
394.13	58.1835
394.346	56.42701
394.562	55.32792
394.778	49.00818
394.994	53.50288
395.21	48.61273
395.426	49.13884
395.642	51.29005
395.858	55.71835
396.073	56.75656
396.289	56.29833
396.505	52.58764
396.721	50.73785
396.937	46.76605
397.153	49.82477
397.369	53.92755
397.584	57.73414
397.8	55.6792
398.016	52.61078
398.232	51.69632
398.447	53.49909
398.663	47.48209
398.879	42.44063
399.094	37.38829
399.31	40.70528
399.526	40.83442
399.741	38.94884
399.957	38.95379
400.173	44.06489
400.388	49.82806
400.604	47.67256
400.82	42.43139
401.035	44.83939
401.251	45.98288
401.466	49.05155
401.682	45.2066
401.897	43.51217
402.113	44.35281
402.328	45.00827
402.544	42.82634
402.759	38.91863
402.974	37.15506
403.19	48.06695
403.405	48.71708
403.621	43.63429
403.836	37.44744
404.051	39.76599
404.267	45.63392
404.482	40.35507
404.697	38.8845
404.913	37.51715
405.128	46.63192
405.343	52.78826
405.559	54.70881
405.774	52.43345
405.989	46.82891
406.204	46.73313
406.42	47.48182
406.635	51.78176
406.85	51.97114
407.065	50.50426
407.28	47.57642
407.495	49.79642
407.71	47.58233
407.926	46.11744
408.141	44.15667
408.356	46.14311
408.571	47.31307
408.786	44.68151
409.001	45.04427
409.216	45.53488
409.431	45.0112
409.646	48.56055
409.861	46.98981
410.076	53.54011
410.291	48.03392
410.506	50.06156
410.721	46.83401
410.936	48.79214
411.15	47.7105
411.365	43.18121
411.58	45.78402
411.795	53.11173
412.01	59.30055
412.225	63.34182
412.439	63.53352
412.654	63.56648
412.869	59.68837
413.084	48.98285
413.299	49.66978
413.513	48.59266
413.728	52.26369
413.943	50.95496
414.157	49.87515
414.372	48.70456
414.587	45.61287
414.801	40.99206
415.016	38.13267
415.231	38.75819
415.445	42.46836
415.66	47.64296
415.874	46.46654
416.089	46.7967
416.304	46.86103
416.518	55.36241
416.733	51.77983
416.947	50.54084
417.162	42.03481
417.376	39.03632
417.59	37.24914
417.805	40.41265
418.019	48.84435
418.234	54.61056
418.448	52.13472
418.663	54.49167
418.877	49.77099
419.091	46.90353
419.306	43.67198
419.52	43.18082
419.734	51.05709
419.949	49.42954
420.163	50.31138
420.377	43.90105
420.591	43.21293
420.806	38.29287
421.02	41.41961
421.234	42.78652
421.448	42.75657
421.663	45.62571
421.877	49.73273
422.091	51.74991
422.305	43.15135
422.519	33.70966
422.733	38.10379
422.947	46.24226
423.161	46.4678
423.376	45.65339
423.59	41.45657
423.804	35.5618
424.018	31.19507
424.232	29.49774
424.446	36.27256
424.66	41.07029
424.874	43.71455
425.088	43.50752
425.302	41.51663
425.515	39.58733
425.729	46.04691
425.943	46.6321
426.157	49.26342
426.371	52.60398
426.585	50.28697
426.799	55.76672
427.013	49.49484
427.226	51.71466
427.44	46.99316
427.654	43.08246
427.868	43.92613
428.081	37.90188
428.295	46.82597
428.509	48.51903
428.723	47.93014
428.936	45.75171
429.15	38.52052
429.364	40.70806
429.577	36.18204
429.791	39.79809
430.005	37.6478
430.218	41.72091
430.432	40.71356
430.645	41.10123
430.859	37.93973
431.073	38.52589
431.286	43.05993
431.5	43.6124
431.713	41.88857
431.927	42.63569
432.14	37.75247
432.354	37.07027
432.567	30.32807
432.781	32.24594
432.994	32.17559
433.207	43.93081
433.421	45.23551
433.634	44.16225
433.848	36.63793
434.061	35.07254
434.274	36.67005
434.488	34.48586
434.701	33.38079
434.914	31.68696
435.127	32.79663
435.341	30.51747
435.554	35.72347
435.767	44.0611
435.98	50.50685
436.194	49.11424
436.407	45.46931
436.62	46.93996
436.833	48.1423
437.046	47.558
437.259	44.42164
437.473	45.92299
437.686	48.19449
437.899	53.11233
438.112	52.62101
438.325	47.60769
438.538	47.80818
438.751	53.63648
438.964	57.15706
439.177	51.29276
439.39	50.2117
439.603	52.167
439.816	56.88839
440.029	59.05884
440.242	56.73868
440.455	60.87631
440.668	55.19453
440.881	57.54508
441.094	59.00552
441.306	68.79822
441.519	75.23666
441.732	70.77901
441.945	65.14452
442.158	58.86235
442.37	64.10867
442.583	68.94258
442.796	64.67741
443.009	58.38874
443.222	53.62618
443.434	59.91168
443.647	58.70394
443.86	54.73343
444.072	55.58042
444.285	54.18017
444.498	57.85962
444.71	56.20172
444.923	59.32785
445.136	52.78068
445.348	54.70579
445.561	58.19786
445.773	61.1316
445.986	58.16714
446.198	54.81606
446.411	59.14599
446.623	57.51387
446.836	55.85509
447.048	46.8978
447.261	45.55826
447.473	40.30431
447.686	45.96785
447.898	46.39339
448.11	62.81757
448.323	62.85284
448.535	57.12174
448.748	48.44942
448.96	45.74388
449.172	49.1002
449.385	46.00886
449.597	44.93904
449.809	45.13359
450.021	46.43451
450.234	48.96867
450.446	46.68846
450.658	50.6707
450.87	48.58642
451.083	53.30172
451.295	51.6606
451.507	53.32824
451.719	56.52345
451.931	56.32427
452.143	63.097
452.356	61.66614
452.568	68.00995
452.78	67.25753
452.992	72.42487
453.204	69.17313
453.416	69.06737
453.628	72.91486
453.84	74.57657
454.052	84.24315
454.264	81.76264
454.476	85.41145
454.688	75.78565
454.9	73.90698
455.112	66.87121
455.324	73.47871
455.536	76.40672
455.747	79.59142
455.959	78.82904
456.171	80.12952
456.383	82.85956
456.595	77.27223
456.807	76.88471
457.018	75.39872
457.23	74.51331
457.442	77.23146
457.654	77.71292
457.865	76.76279
458.077	74.00596
458.289	73.52558
458.501	81.67871
458.712	83.90261
458.924	85.72688
459.136	78.59564
459.347	67.72002
459.559	64.27463
459.77	57.15103
459.982	56.29936
460.194	51.57483
460.405	55.22167
460.617	55.61968
460.828	56.11488
461.04	58.86707
461.251	63.51956
461.463	62.79779
461.674	55.80366
461.886	46.91368
462.097	45.54771
462.309	48.6205
462.52	55.17399
462.731	55.72949
462.943	55.30617
463.154	47.15571
463.366	48.95208
463.577	42.39931
463.788	54.55564
464	49.69624
464.211	54.97732
464.422	51.8812
464.634	54.68515
464.845	58.45413
465.056	57.1169
465.267	55.13325
465.478	56.83721
465.69	57.80429
465.901	59.52779
466.112	55.78027
466.323	50.22105
466.534	51.28733
466.745	49.82034
466.957	52.09542
467.168	50.08358
467.379	50.61101
467.59	47.4242
467.801	51.7474
468.012	50.66183
468.223	51.96547
468.434	43.56641
468.645	42.19663
468.856	46.94677
469.067	49.29453
469.278	54.34702
469.489	50.31026
469.7	48.97597
469.911	44.71104
470.122	46.54168
470.333	56.77591
470.543	59.60265
470.754	63.01602
470.965	58.5114
471.176	58.35036
471.387	57.11104
471.598	62.35284
471.808	68.55234
472.019	68.28776
472.23	67.04681
472.441	63.456
472.651	59.62389
472.862	55.71765
473.073	57.1497
473.283	61.17941
473.494	62.35283
473.705	64.65769
473.915	62.89028
474.126	63.37201
474.337	61.39215
474.547	59.57859
474.758	62.15613
474.968	59.51583
475.179	62.27473
475.389	69.70607
475.6	67.84481
475.81	72.38286
476.021	68.53787
476.231	74.17522
476.442	69.74647
476.652	62.35468
476.863	61.44786
477.073	60.66261
477.284	63.29797
477.494	65.70008
477.704	65.57159
477.915	63.71252
478.125	64.17627
478.335	65.37417
478.546	69.05557
478.756	65.00395
478.966	71.55168
479.177	71.9715
479.387	71.39973
479.597	70.16626
479.807	69.06596
480.018	73.44812
480.228	72.30791
480.438	75.81431
480.648	72.81609
480.858	78.45912
481.068	73.3733
481.279	83.74882
481.489	84.02774
481.699	89.4634
481.909	88.42706
482.119	92.63635
482.329	99.39302
482.539	108.29477
482.749	107.48052
482.959	119.53973
483.169	123.33607
483.379	136.45662
483.589	136.45572
483.799	145.81874
484.009	155.86219
484.219	172.66723
484.429	179.02935
484.639	181.95293
484.849	181.9808
485.059	183.38113
485.268	188.69389
485.478	181.61774
485.688	184.30149
485.898	185.65473
486.108	200.28072
486.317	215.50806
486.527	231.1365
486.737	247.32629
486.947	251.00407
487.156	265.365
487.366	262.20932
487.576	275.36084
487.785	272.71965
487.995	282.86734
488.205	281.68061
488.414	286.38348
488.624	298.72602
488.834	306.48129
489.043	308.75038
489.253	303.57341
489.462	302.49983
489.672	300.17353
489.882	300.16175
490.091	305.18455
490.301	311.94657
490.51	313.12641
490.72	309.46238
490.929	305.46699
491.138	304.67333
491.348	297.97981
491.557	296.44296
491.767	288.53277
491.976	276.85401
492.185	259.62006
492.395	248.2059
492.604	253.31357
492.813	255.11633
493.023	255.25285
493.232	246.74742
493.441	240.04725
493.651	236.84724
493.86	236.58533
494.069	234.74621
494.278	231.81031
494.488	221.14795
494.697	212.49959
494.906	203.10895
495.115	194.47264
495.324	192.9393
495.533	187.79582
495.743	185.83473
495.952	183.5227
496.161	176.3878
496.37	170.77666
496.579	159.43234
496.788	153.35646
496.997	149.28413
497.206	138.59031
497.415	132.6662
497.624	127.91385
497.833	120.08231
498.042	119.09286
498.251	105.81496
498.46	106.0186
498.669	98.32659
498.878	98.99225
499.087	100.46485
499.296	104.1031
499.504	101.20551
499.713	97.2938
499.922	93.20334
500.131	91.65868
500.34	86.51124
500.549	84.82017
500.757	92.54242
500.966	100.96915
501.175	99.36862
501.384	96.91868
501.592	96.95855
501.801	100.79464
502.01	99.20737
502.218	96.3863
502.427	98.89457
502.636	100.53128
502.844	101.85705
503.053	102.77251
503.262	100.91415
503.47	98.76727
503.679	93.90429
503.887	95.68426
504.096	96.86357
504.304	97.3412
504.513	93.76763
504.721	92.96402
504.93	90.00365
505.138	87.65968
505.347	89.17318
505.555	94.4922
505.764	95.89587
505.972	96.73633
506.18	92.03516
506.389	90.29998
506.597	89.10332
506.806	89.84269
507.014	97.37896
507.222	95.59282
507.431	95.33138
507.639	92.55598
507.847	95.36928
508.055	101.0705
508.264	104.18708
508.472	107.53212
508.68	110.06728
508.888	108.60117
509.096	107.69048
509.305	101.34947
509.513	105.65176
509.721	99.0163
509.929	102.56034
510.137	93.54863
510.345	98.96459
510.553	95.80896
510.762	101.17531
510.97	100.45676
511.178	97.79046
511.386	98.20426
511.594	94.45616
511.802	94.73398
512.01	98.54899
512.218	102.1649
512.426	99.23868
512.634	98.5168
512.842	102.41388
513.049	111.85704
513.257	112.87813
513.465	109.16614
513.673	104.97401
513.881	101.89021
514.089	103.22792
514.297	105.62786
514.504	107.64448
514.712	93.22517
514.92	90.97769
515.128	81.65401
515.336	98.27794
515.543	102.66442
515.751	112.77199
515.959	112.58822
516.166	117.64144
516.374	117.41458
516.582	109.20882
516.789	110.17803
516.997	111.75484
517.205	120.50601
517.412	115.68583
517.62	116.38199
517.827	117.21351
518.035	122.50648
518.243	126.39123
518.45	130.68185
518.658	130.41894
518.865	132.94465
519.073	143.68758
519.28	161.28002
519.488	169.23472
519.695	179.22638
519.902	182.7154
520.11	198.87434
520.317	203.61467
520.525	213.27564
520.732	218.46439
520.939	233.31639
521.147	240.30662
521.354	252.72639
521.561	251.22361
521.769	251.69723
521.976	246.42801
522.183	249.98976
522.391	252.83291
522.598	256.00189
522.805	254.574
523.012	248.20332
523.219	244.95016
523.427	239.96393
523.634	247.02928
523.841	248.35885
524.048	249.31295
524.255	241.89626
524.462	234.79944
524.669	236.43549
524.877	238.73847
525.084	240.62649
525.291	233.61639
525.498	232.24808
525.705	228.28921
525.912	226.34658
526.119	222.34224
526.326	220.58653
526.533	221.8892
526.74	218.96604
526.947	212.10038
527.153	206.54781
527.36	199.90589
527.567	203.61199
527.774	192.32121
527.981	185.62222
528.188	169.3672
528.395	167.88972
528.602	162.2119
528.808	169.67003
529.015	164.56568
529.222	154.0185
529.429	137.7041
529.635	127.87136
529.842	126.11683
530.049	119.12838
530.256	116.74661
530.462	110.45223
530.669	104.27456
530.876	100.33658
531.082	95.61709
531.289	101.54767
531.495	103.77516
531.702	102.86581
531.909	90.05461
532.115	81.74147
532.322	83.36911
532.528	84.34336
532.735	82.79637
532.941	78.41196
533.148	79.9819
533.354	81.27255
533.561	89.07763
533.767	91.44447
533.974	95.97624
534.18	89.00875
534.387	91.10025
534.593	80.35505
534.799	85.69043
535.006	86.59363
535.212	92.45616
535.418	91.69575
535.625	90.19997
535.831	92.21557
536.037	92.7454
536.244	88.83297
536.45	89.35431
536.656	86.07724
536.862	89.60615
537.068	87.3577
537.275	89.59667
537.481	90.8825
537.687	94.59613
537.893	94.86212
538.099	94.3471
538.305	92.10447
538.512	94.1252
538.718	92.78122
538.924	93.52468
539.13	95.21608
539.336	91.61995
539.542	86.80315
539.748	83.06499
539.954	87.05052
540.16	93.26641
540.366	89.08843
540.572	90.50712
540.778	91.31526
540.984	98.91663
541.19	100.28001
541.396	92.47352
541.602	85.23232
541.807	83.28133
542.013	96.02991
542.219	98.01421
542.425	92.05706
542.631	85.2347
542.837	89.2586
543.042	97.43215
543.248	100.61622
543.454	95.03562
543.66	96.09796
543.865	91.78465
544.071	97.25513
544.277	94.6679
544.483	92.83803
544.688	88.83687
544.894	88.9923
545.1	89.25435
545.305	92.10357
545.511	85.88482
545.716	83.7374
545.922	79.90669
546.128	81.50871
546.333	87.23264
546.539	87.66159
546.744	88.91859
546.95	87.41893
547.155	84.26171
547.361	77.61937
547.566	78.17729
547.772	76.86897
547.977	80.07274
548.182	75.3841
548.388	76.30554
548.593	73.92545
548.799	80.11245
549.004	78.28783
549.209	80.27036
549.415	75.51512
549.62	83.36603
549.825	80.14633
550.031	79.89844
550.236	77.51568
550.441	81.07666
550.646	81.29678
550.852	77.4297
551.057	78.95212
551.262	76.04734
551.467	74.35404
551.672	64.12589
551.878	62.54574
552.083	59.58501
552.288	60.98611
552.493	62.1466
552.698	66.47236
552.903	71.03857
553.108	66.96462
553.313	70.00163
553.518	70.26399
553.723	76.49798
553.928	75.41379
554.133	74.38987
554.338	73.93079
554.543	72.45865
554.748	73.40259
554.953	75.62932
555.158	77.6574
555.363	78.56519
555.568	70.21955
555.773	67.93365
555.978	67.18779
556.182	72.89183
556.387	76.10843
556.592	74.78118
556.797	73.10551
557.002	69.7509
557.206	75.28685
557.411	81.97054
557.616	88.58581
557.821	88.38952
558.025	82.32162
558.23	81.77217
558.435	83.08979
558.64	93.27027
558.844	87.07024
559.049	87.69995
559.253	85.68237
559.458	99.13807
559.663	102.9602
559.867	108.51226
560.072	101.72306
560.276	109.28871
560.481	111.91608
560.685	129.66254
560.89	136.50621
561.094	141.15814
561.299	141.06038
561.503	146.0604
561.708	151.11031
561.912	153.24415
562.117	160.27161
562.321	171.90795
562.525	178.95272
562.73	174.87207
562.934	170.58351
563.139	173.58666
563.343	179.01611
563.547	178.93393
563.752	178.92913
563.956	182.35175
564.16	185.09157
564.364	182.93405
564.569	179.23199
564.773	179.45072
564.977	180.80428
565.181	180.11622
565.385	184.72424
565.59	185.85881
565.794	187.76568
565.998	174.03141
566.202	172.79936
566.406	171.30817
566.61	172.03868
566.814	165.30693
567.018	163.43093
567.222	165.34287
567.426	172.04438
567.63	167.77941
567.834	167.3814
568.038	165.59014
568.242	169.30989
568.446	174.5761
568.65	170.97801
568.854	162.47023
569.058	161.02525
569.262	152.70228
569.466	149.90675
569.67	134.66431
569.874	138.26318
570.078	134.4878
570.281	133.68406
570.485	125.26695
570.689	123.60091
570.893	122.11716
571.097	122.25521
571.3	117.15788
571.504	110.25383
571.708	103.44093
571.912	103.17735
572.115	106.24058
572.319	102.37434
572.523	100.06244
572.726	99.60831
572.93	99.6089
573.133	94.10617
573.337	87.50842
573.541	92.02012
573.744	94.10951
573.948	95.70686
574.151	84.3533
574.355	80.96278
574.558	80.71034
574.762	84.60868
574.965	86.64725
575.169	87.86751
575.372	89.27542
575.576	92.22371
575.779	90.3995
575.983	88.44676
576.186	83.23273
576.389	86.529
576.593	89.34637
576.796	93.18714
577	89.54741
577.203	84.9095
577.406	79.06168
577.609	77.65794
577.813	82.2162
578.016	86.18551
578.219	87.23091
578.423	90.34106
578.626	89.03725
578.829	91.5676
579.032	87.50513
579.235	87.95559
579.438	87.86614
579.642	82.66719
579.845	82.37466
580.048	76.14797
580.251	85.53977
580.454	84.79853
580.657	94.3766
580.86	89.09508
581.063	98.20406
581.266	93.58234
581.469	93.5904
581.672	92.94209
581.875	89.83404
582.078	92.50799
582.281	93.67168
582.484	100.43
582.687	104.04046
582.89	99.74814
583.093	101.79292
583.296	98.54934
583.499	99.36558
583.702	94.84171
583.904	104.60449
584.107	108.14542
584.31	105.92434
584.513	97.0599
584.716	93.61118
584.918	105.77764
585.121	106.97661
585.324	106.2958
585.527	96.56345
585.729	99.45576
585.932	99.88496
586.135	103.66257
586.337	108.78758
586.54	105.71906
586.743	104.12101
586.945	91.94858
587.148	92.47522
587.35	89.39034
587.553	98.31726
587.755	100.47374
587.958	101.62102
588.161	96.92694
588.363	94.61339
588.566	99.99019
588.768	98.36986
588.971	102.49151
589.173	94.47056
589.375	94.3578
589.578	90.22716
589.78	94.67206
589.983	90.05719
590.185	92.2434
590.387	86.86034
590.59	93.49672
590.792	91.08882
590.994	95.31907
591.197	96.00015
591.399	94.88779
591.601	92.48168
591.803	87.67221
592.006	86.14417
592.208	88.67449
592.41	89.43885
592.612	88.76732
592.815	87.44256
593.017	91.4931
593.219	87.84292
593.421	83.44851
593.623	77.55059
593.825	81.1538
594.027	85.77726
594.229	84.28836
594.432	88.16783
594.634	84.22711
594.836	87.4155
595.038	96.12999
595.24	103.18926
595.442	101.8805
595.644	95.31611
595.846	88.17415
596.048	92.23228
596.249	92.58448
596.451	94.68496
596.653	91.41144
596.855	88.72059
597.057	93.72096
597.259	97.04337
597.461	95.06823
597.663	90.42577
597.864	88.54709
598.066	88.5338
598.268	94.61778
598.47	100.113
598.671	104.01678
598.873	98.83493
599.075	91.73041
599.277	92.57988
599.478	90.52788
599.68	96.00751
599.882	98.31435
600.083	103.84468
600.285	102.4995
600.487	95.73375
600.688	95.12232
600.89	97.93079
601.091	102.4514
601.293	100.63907
601.494	100.96117
601.696	104.1071
601.898	107.91042
602.099	109.46293
602.301	107.80658
602.502	105.28685
602.703	100.74184
602.905	99.4942
603.106	98.97833
603.308	101.54527
603.509	104.47381
603.711	105.06968
603.912	105.02595
604.113	106.0114
604.315	113.7602
604.516	118.35287
604.717	123.19927
604.919	122.88307
605.12	125.22528
605.321	125.86653
605.522	122.57055
605.724	122.76564
605.925	121.31366
606.126	124.33323
606.327	125.62739
606.528	127.44654
606.729	128.57509
606.931	129.8576
607.132	137.22379
607.333	144.39524
607.534	150.68947
607.735	146.30008
607.936	147.05543
608.137	148.21694
608.338	153.01513
608.539	149.39934
608.74	144.54584
608.941	143.85032
609.142	150.79584
609.343	158.52749
609.544	159.54901
609.745	156.66935
609.946	151.38709
610.147	155.92925
610.348	159.71933
610.549	169.22085
610.75	170.73206
610.95	174.85276
611.151	167.93674
611.352	168.16146
611.553	166.81682
611.754	166.61557
611.954	160.5854
612.155	152.23909
612.356	146.87597
612.557	149.91348
612.757	153.15632
612.958	153.87387
613.159	144.7111
613.359	142.68609
613.56	135.87946
613.761	139.55969
613.961	141.32783
614.162	147.61882
614.362	148.92055
614.563	142.318
614.764	135.18792
614.964	128.87694
615.165	129.35109
615.365	131.70977
615.566	128.65526
615.766	126.93878
615.967	124.05094
616.167	124.51182
616.368	120.08235
616.568	117.54762
616.768	116.18295
616.969	110.63614
617.169	105.10807
617.37	98.7359
617.57	100.96426
617.77	104.57832
617.971	104.83875
618.171	101.89265
618.371	99.71393
618.571	102.98262
618.772	101.4637
618.972	99.61614
619.172	95.8286
619.372	97.33967
619.573	105.74642
619.773	102.57159
619.973	98.04106
620.173	86.73787
620.373	81.78336
620.573	82.78767
620.774	78.53027
620.974	80.14982
621.174	82.55732
621.374	86.17728
621.574	80.55381
621.774	80.96166
621.974	79.32318
622.174	81.1873
622.374	71.709
622.574	73.18462
622.774	73.83005
622.974	76.44097
623.174	73.24687
623.374	72.04924
623.574	75.58983
623.774	78.23024
623.973	85.52514
624.173	80.37854
624.373	71.05612
624.573	64.2513
624.773	66.17425
624.973	69.53708
625.172	70.02455
625.372	70.10037
625.572	70.03173
625.772	66.12423
625.971	64.42594
626.171	63.57897
626.371	67.54869
626.57	63.61892
626.77	63.71828
626.97	60.69818
627.169	60.39481
627.369	62.19851
627.569	67.62924
627.768	69.06623
627.968	69.19584
628.167	64.12126
628.367	60.93169
628.566	55.13032
628.766	51.74265
628.965	56.66125
629.165	57.01692
629.364	62.48578
629.564	63.58365
629.763	62.28225
629.963	54.04715
630.162	52.48669
630.362	55.05635
630.561	60.9529
630.76	55.91273
630.96	60.80256
631.159	66.13434
631.358	68.93028
631.558	70.94416
631.757	67.10334
631.956	65.7971
632.155	60.10126
632.355	61.62721
632.554	71.55686
632.753	77.41598
632.952	69.93148
633.152	67.0005
633.351	63.61643
633.55	74.81301
633.749	73.12748
633.948	76.36864
634.147	72.99331
634.346	71.48951
634.545	61.50742
634.744	59.78039
634.944	56.59789
635.143	59.55653
635.342	63.49489
635.541	65.99262
635.74	69.45321
635.939	61.69722
636.138	58.60753
636.336	58.27633
636.535	62.64982
636.734	59.06916
636.933	55.68412
637.132	51.51194
637.331	55.16132
637.53	55.94194
637.729	54.22261
637.928	53.33614
638.126	51.97257
638.325	56.22408
638.524	54.08187
638.723	50.85618
638.921	51.21964
639.12	56.58891
639.319	54.05029
639.518	51.15399
639.716	53.77371
639.915	59.44861
640.114	59.34736
640.312	53.63039
640.511	52.22538
640.71	49.92066
640.908	51.45409
641.107	50.44111
641.305	46.6315
641.504	38.13626
641.702	38.19922
641.901	39.10412
642.099	42.78531
642.298	42.88422
642.496	45.76463
642.695	46.51117
642.893	44.56214
643.092	46.3403
643.29	49.11389
643.489	53.46572
643.687	52.82427
643.885	55.00321
644.084	48.69441
644.282	48.94743
644.48	46.53685
644.679	51.99883
644.877	49.48899
645.075	48.11922
645.274	50.02261
645.472	48.45741
645.67	50.08442
645.868	51.70667
646.067	54.25022
646.265	52.5294
646.463	46.70115
646.661	46.17255
646.859	45.06383
647.057	40.53396
647.256	47.67785
647.454	46.27247
647.652	52.55803
647.85	47.18212
648.048	49.70105
648.246	49.31458
648.444	44.95318
648.642	42.34036
648.84	38.7202
649.038	39.69181
649.236	42.75342
649.434	44.70727
649.632	46.96185
649.83	54.44641
650.028	54.25096
650.226	55.77969
650.423	51.84623
650.621	54.67873
650.819	47.08632
651.017	49.00974
651.215	42.88977
651.413	53.80011
651.61	47.41469
651.808	53.28154
652.006	48.98191
652.204	44.67919
652.401	42.72009
652.599	44.67609
652.797	46.6344
652.995	51.03036
653.192	52.49657
653.39	55.95085
653.588	42.89251
653.785	33.41562
653.983	31.75129
654.18	43.2414
654.378	49.26467
654.576	52.06741
654.773	51.74336
654.971	58.42438
655.168	59.33786
655.366	57.97017
655.563	53.34962
655.761	53.11983
655.958	53.57657
656.156	60.78864
656.353	60.28945
656.55	80.86513
656.748	97.60979
656.945	141.1854
657.143	187.57179
657.34	243.36607
657.537	307.22553
657.735	381.07808
657.932	471.32594
658.129	571.97479
658.326	673.7299
658.524	788.89832
658.721	894.04451
658.918	989.33816
659.115	1061.35675
659.313	1120.97838
659.51	1186.03935
659.707	1230.32785
659.904	1276.38263
660.101	1295.14462
660.298	1305.95132
660.496	1303.82965
660.693	1301.82916
660.89	1310.52606
661.087	1317.35704
661.284	1326.69938
661.481	1328.67036
661.678	1320.4166
661.875	1303.68903
662.072	1296.06636
662.269	1293.57977
662.466	1294.88047
662.663	1295.27165
662.86	1282.3793
663.057	1266.72481
663.254	1247.40591
663.45	1235.55633
663.647	1223.6004
663.844	1200.9094
664.041	1182.72518
664.238	1167.02915
664.435	1160.22029
664.631	1152.99406
664.828	1148.6094
665.025	1143.96526
665.222	1132.01278
665.419	1104.60363
665.615	1078.25436
665.812	1054.79966
666.009	1017.12532
666.205	954.1562
666.402	896.93268
666.599	849.15832
666.795	820.25258
666.992	798.69487
667.188	776.83793
667.385	751.1302
667.582	720.27926
667.778	703.01519
667.975	681.61226
668.171	657.0828
668.368	617.6638
668.564	580.5197
668.761	529.55168
668.957	488.50616
669.154	436.45439
669.35	382.91545
669.547	324.78709
669.743	269.48624
669.939	210.8309
670.136	157.13337
670.332	107.92035
670.528	82.5604
670.725	65.50908
670.921	59.88315
671.117	47.57635
671.314	45.01111
671.51	46.73131
671.706	50.44078
671.902	44.11947
672.099	41.55505
672.295	43.0528
672.491	46.99505
672.687	43.92764
672.883	39.11222
673.08	41.10021
673.276	39.5715
673.472	45.49235
673.668	45.10728
673.864	46.93167
674.06	40.9799
674.256	36.86778
674.452	36.7691
674.648	37.31999
674.844	40.44185
675.04	46.46999
675.236	44.93445
675.432	42.94737
675.628	43.23705
675.824	49.2965
676.02	56.76801
676.216	51.94803
676.412	51.19459
676.608	45.55105
676.804	43.3066
676.999	43.51058
677.195	42.5035
677.391	47.60656
677.587	55.0605
677.783	55.19515
677.978	47.28535
678.174	47.27862
678.37	54.43591
678.566	60.91253
678.761	48.93318
678.957	41.89603
679.153	44.4821
679.348	48.38915
679.544	47.64994
679.74	38.91482
679.935	37.19359
680.131	40.41832
680.327	52.27554
680.522	58.07082
680.718	55.25949
680.913	51.74251
681.109	48.09627
681.304	52.04187
681.5	48.26033
681.695	43.79965
681.891	39.50661
682.086	44.59569
682.282	48.29578
682.477	40.79933
682.672	33.07579
682.868	33.3171
683.063	39.73751
683.259	44.09735
683.454	43.93785
683.649	47.55356
683.845	43.16482
684.04	40.45504
684.235	37.26655
684.43	32.11594
684.626	27.39799
684.821	18.30321
685.016	25.35311
685.211	31.11195
685.407	30.68877
685.602	32.00814
685.797	29.40503
685.992	35.1738
686.187	27.75219
686.382	27.59226
686.577	28.27517
686.773	33.06247
686.968	30.32475
687.163	34.06659
687.358	36.74221
687.553	40.58706
687.748	39.93949
687.943	36.8045
688.138	36.18202
688.333	30.4784
688.528	28.72064
688.723	27.29182
688.918	30.2269
689.112	36.67531
689.307	37.29655
689.502	34.78854
689.697	30.32907
689.892	28.79495
690.087	34.49495
690.282	29.01969
690.476	30.3563
690.671	27.13024
690.866	33.19532
691.061	39.48464
691.255	31.11299
691.45	25.63611
691.645	21.43103
691.84	27.94813
692.034	25.24464
692.229	16.87065
692.424	7.55154
692.618	13.96715
692.813	14.87859
693.007	16.93052
693.202	15.56346
693.397	19.96315
693.591	27.61935
693.786	24.98077
693.98	26.08878
694.175	25.40676
694.369	27.46158
694.564	25.83045
694.758	25.07961
694.953	25.24111
695.147	22.83425
695.342	20.16404
695.536	19.74102
695.73	24.56139
695.925	34.07139
696.119	34.95149
696.313	31.40016
696.508	21.66132
696.702	23.00142
696.896	21.50234
697.091	28.31459
697.285	30.23363
697.479	32.71291
697.673	26.90935
697.868	21.47044
698.062	21.85924
698.256	20.52681
698.45	18.3723
698.644	20.42376
698.839	20.61841
699.033	21.95535
699.227	23.68095
699.421	27.03713
699.615	26.38409
699.809	22.89822
700.003	19.80336
700.197	24.65628
700.391	23.32225
700.585	25.50137
700.779	27.45793
700.973	28.07611
701.167	24.3314
701.361	20.9779
701.555	25.73478
701.749	27.16853
701.943	28.66489
702.137	22.80043
702.331	25.53443
702.525	26.255
702.718	22.67211
702.912	20.45911
703.106	17.55726
703.3	21.92647
703.494	22.44816
703.687	28.25078
703.881	31.10979
704.075	35.21696
704.269	29.12223
704.462	32.34932
704.656	32.76827
704.85	40.77654
705.043	39.21611
705.237	33.38721
705.431	30.6854
705.624	28.01229
705.818	25.53464
706.012	23.6156
706.205	23.4832
706.399	31.07538
706.592	32.4998
706.786	35.14413
706.979	41.40039
707.173	35.0885
707.366	35.05189
707.56	23.94297
707.753	25.92929
707.947	25.86772
708.14	31.01114
708.333	31.49951
708.527	31.52892
708.72	28.62865
708.914	33.22253
709.107	25.37055
709.3	33.22647
709.494	29.18389
709.687	35.57063
709.88	29.60757
710.073	29.41453
710.267	31.6282
710.46	39.14908
710.653	38.82408
710.846	33.80696
711.04	29.61303
711.233	32.0894
711.426	34.33756
711.619	30.87829
711.812	32.83671
712.005	29.80804
712.198	32.90297
712.391	31.36506
712.585	33.09073
712.778	32.40508
712.971	25.63064
713.164	25.63294
713.357	19.15119
713.55	22.76903
713.743	22.31219
713.936	23.06038
714.129	24.68901
714.322	26.77427
714.514	29.32042
714.707	30.85069
714.9	31.37277
715.093	34.98516
715.286	31.07732
715.479	32.83328
715.672	27.06877
715.864	26.83837
716.057	22.14787
716.25	22.92658
716.443	19.53992
716.636	24.26836
716.828	31.21158
717.021	35.57765
717.214	31.98844
717.406	30.68395
717.599	40.06109
717.792	43.02895
717.984	40.84728
718.177	37.59492
718.37	36.45299
718.562	39.96702
718.755	35.98873
718.947	39.66796
719.14	34.58699
719.333	32.9274
719.525	30.61707
719.718	28.59816
719.91	35.24347
720.103	37.97145
720.295	39.56749
720.487	33.70366
720.68	29.89881
720.872	29.31226
721.065	29.73383
721.257	30.31739
721.449	34.52385
721.642	39.18619
721.834	35.08547
722.026	36.45091
722.219	35.21391
722.411	36.25394
722.603	30.29324
722.796	28.14236
722.988	32.34845
723.18	40.55393
723.372	36.02547
723.565	38.36385
723.757	42.20583
723.949	46.40627
724.141	42.70039
724.333	31.62724
724.525	37.59157
724.717	39.60909
724.91	42.67178
725.102	32.86168
725.294	27.26116
725.486	24.5263
725.678	27.52408
725.87	27.90997
726.062	29.79622
726.254	31.13244
726.446	36.79868
726.638	30.41499
726.83	35.4004
727.022	27.38945
727.213	32.47294
727.405	27.16206
727.597	26.02083
727.789	31.52698
727.981	29.37637
728.173	35.43959
728.365	30.976
728.556	31.85193
728.748	34.12786
728.94	35.5936
729.132	36.44711
729.324	35.76644
729.515	40.62519
729.707	35.70325
729.899	39.93435
730.09	36.08418
730.282	35.85431
730.474	28.594
730.665	26.41256
730.857	31.95517
731.049	37.26603
731.24	40.68566
731.432	44.20431
731.623	42.89739
731.815	41.10865
732.006	38.2378
732.198	35.53314
732.389	31.26247
732.581	29.4114
732.772	33.71118
732.964	38.30356
733.155	41.39321
733.347	38.17152
733.538	38.72949
733.729	36.58661
733.921	34.01336
734.112	30.23554
734.304	28.95931
734.495	28.69949
734.686	31.36507
734.877	32.86707
735.069	30.38764
735.26	24.95002
735.451	22.10975
735.643	25.04626
735.834	32.76524
736.025	31.56096
736.216	34.55282
736.407	33.77179
736.599	42.2797
736.79	38.24431
736.981	34.00971
737.172	28.04741
737.363	25.83015
737.554	28.01239
737.745	31.04295
737.936	33.29039
738.127	33.2269
738.318	22.4393
738.509	27.3878
738.7	27.71551
738.891	35.56879
739.082	36.28546
739.273	34.00254
739.464	36.83682
739.655	32.1811
739.846	28.40233
740.037	27.35917
740.228	26.96858
740.419	32.11513
740.609	28.52914
740.8	30.32316
740.991	23.18908
741.182	23.6737
741.373	22.37228
741.563	26.86855
741.754	27.19997
741.945	28.17842
742.136	28.96144
742.326	27.30158
742.517	29.96971
742.708	29.34747
742.898	30.03093
743.089	26.15046
743.28	23.21698
743.47	21.29301
743.661	23.71182
743.851	29.35606
744.042	28.15266
744.233	29.15601
744.423	28.23969
744.614	30.12576
744.804	28.89397
744.995	27.36087
745.185	34.95683
745.376	30.19482
745.566	31.11078
745.756	25.43595
745.947	26.18907
746.137	24.75544
746.328	22.11961
746.518	21.43271
746.708	22.76869
746.899	26.02404
747.089	30.81877
747.279	25.76634
747.47	31.67024
747.66	31.43482
747.85	33.77848
748.04	29.92448
748.231	28.98423
748.421	29.73662
748.611	27.59659
748.801	25.51091
748.991	24.79232
749.182	19.89846
749.372	17.48498
749.562	22.63712
749.752	26.22145
749.942	25.04853
750.132	17.81149
750.322	17.87704
750.512	17.55132
750.702	19.18143
750.892	18.53171
751.082	22.60754
751.272	29.64374
751.462	29.61067
751.652	33.0657
751.842	34.52935
752.032	37.42915
752.222	36.57603
752.412	27.61779
752.602	20.48345
752.792	24.29767
752.981	25.92563
753.171	31.88968
753.361	29.38008
753.551	29.05839
753.741	27.52355
753.93	32.67166
754.12	37.06533
754.31	40.39128
754.5	31.17179
754.689	30.16809
754.879	30.00072
755.069	37.4621
755.258	37.84897
755.448	32.41064
755.638	27.91642
755.827	22.54213
756.017	24.92076
756.206	23.48946
756.396	24.27268
756.586	25.67644
756.775	24.56209
756.965	22.73538
757.154	21.13472
757.344	17.32457
757.533	23.15729
757.723	18.72727
757.912	20.19343
758.101	20.55436
758.291	21.30387
758.48	26.58159
758.67	20.7161
758.859	26.9055
759.048	24.55971
759.238	30.45478
759.427	20.87652
759.616	18.49773
759.806	18.5607
759.995	29.44718
760.184	29.25325
760.373	26.61671
760.563	25.56813
760.752	28.43644
760.941	27.58982
761.13	27.42884
761.319	21.95286
761.509	23.64909
761.698	17.45902
761.887	19.8404
762.076	18.50068
762.265	24.5968
762.454	29.02181
762.643	32.44453
762.832	30.25984
763.021	30.71908
763.21	25.14624
763.399	27.97946
763.588	29.41296
763.777	32.31221
763.966	31.10602
764.155	28.8224
764.344	29.63739
764.533	30.67994
764.722	27.12885
764.911	30.19318
765.1	24.19805
765.288	30.94178
765.477	29.76223
765.666	43.15161
765.855	41.55701
766.044	38.40585
766.232	32.08803
766.421	27.03949
766.61	30.55599
766.799	29.41357
766.987	30.91288
767.176	27.00469
767.365	25.21254
767.553	23.02606
767.742	23.05481
767.931	27.71642
768.119	26.64324
768.308	37.58909
768.497	35.82471
768.685	41.84879
768.874	27.15885
769.062	20.32019
769.251	15.69853
769.439	19.11855
769.628	24.49509
769.816	28.20518
770.005	23.96919
770.193	28.43402
770.382	28.73044
770.57	32.77248
770.758	30.85338
770.947	28.9939
771.135	29.93642
771.323	24.46016
771.512	28.60457
771.7	19.41731
771.888	17.16717
772.077	11.69127
772.265	17.88288
772.453	21.82364
772.642	18.01066
772.83	23.67618
773.018	21.16816
773.206	27.8168
773.394	26.97117
773.583	29.41969
773.771	24.85528
773.959	24.20696
774.147	22.8322
774.335	19.50892
774.523	16.80341
774.711	17.52528
774.899	20.84768
775.087	21.14182
775.275	12.56956
775.463	16.94311
775.651	17.13834
775.839	23.07041
776.027	22.15343
776.215	26.81595
776.403	27.20348
776.591	22.60933
776.779	15.24092
776.967	16.02689
777.155	16.02501
777.343	24.50359
777.531	22.64363
777.718	25.87267
777.906	19.90214
778.094	21.01226
778.282	19.63843
778.47	21.23362
778.657	22.56988
778.845	23.51811
779.033	30.48547
779.22	31.13396
779.408	34.91271
779.596	29.67445
779.783	28.2739
779.971	30.78171
780.159	34.52319
780.346	45.33979
780.534	46.44362
780.722	51.55632
780.909	50.47967
781.097	50.74031
781.284	45.52972
781.472	48.22984
781.659	57.90548
781.847	59.53279
782.034	57.1461
782.222	51.90066
782.409	54.92564
782.597	52.9436
782.784	50.75013
782.971	49.87971
783.159	53.8858
783.346	52.43333
783.533	51.48322
783.721	45.23434
783.908	44.21897
784.095	41.58424
784.283	48.32547
784.47	53.05115
784.657	52.62416
784.844	52.98505
785.032	49.6658
785.219	46.90121
785.406	51.42574
785.593	50.67375
785.78	56.86533
785.968	46.51073
786.155	48.98163
786.342	46.66038
786.529	48.51468
786.716	42.88829
786.903	42.04153
787.09	37.65361
787.277	36.90196
787.464	40.90457
787.651	45.1684
787.838	48.62169
788.025	44.85258
788.212	36.60946
788.399	30.81063
788.586	26.15742
788.773	26.09344
788.96	33.13964
789.147	28.60872
789.334	33.52664
789.521	22.11579
789.707	27.65661
789.894	23.52031
790.081	26.22607
790.268	19.67494
790.455	15.82871
790.641	13.22056
790.828	11.78667
791.015	13.12429
791.202	12.04929
791.388	17.46087
791.575	17.39647
791.762	13.55162
791.948	10.38726
792.135	6.76815
792.322	9.50458
792.508	8.56285
792.695	12.57219
792.881	11.56331
793.068	10.06378
793.254	11.1722
793.441	5.66316
793.627	6.1844
793.814	3.08914
794	8.53271
794.187	9.44416
794.373	10.81054
794.56	14.10131
794.746	7.9749
794.933	8.59628
795.119	6.47805
795.305	17.10703
795.492	15.54016
795.678	12.37964
795.864	13.31762
796.051	14.29691
796.237	18.76172
796.423	11.13849
796.61	10.45478
796.796	13.74758
796.982	13.19318
797.168	10.84514
797.355	4.48915
797.541	7.12905
797.727	11.43149
797.913	13.15836
798.099	12.08377
798.285	13.32005
798.471	8.17205
798.658	10.61576
798.844	8.9876
799.03	16.51452
799.216	12.79815
799.402	7.87742
799.588	8.4648
799.774	11.43025
799.96	17.58904
800.146	15.17695
800.332	10.71309
800.518	8.85484
800.704	5.95434
800.89	14.4309
801.075	9.67408
801.261	11.79331
801.447	5.33744
801.633	9.90144
801.819	10.3901
802.005	11.69399
802.19	15.5368
802.376	18.01335
802.562	17.42704
802.748	9.37907
802.934	6.54424
803.119	7.74964
803.305	15.40418
803.491	22.34766
803.676	18.79537
803.862	14.66023
804.048	7.81357
804.233	5.62981
804.419	6.11969
804.605	4.09925
804.79	8.66233
804.976	7.09667
805.161	11.95341
805.347	8.46577
805.532	9.3463
805.718	6.24939
805.903	11.5622
806.089	9.57427
806.274	15.0166
806.46	12.99559
806.645	11.62661
806.831	11.88879
807.016	13.71323
807.201	15.1479
807.387	9.63843
807.572	9.80237
807.757	12.44117
807.943	15.18065
808.128	17.94857
808.313	12.3108
808.499	9.0184
808.684	6.28377
808.869	8.23891
809.054	11.10742
809.24	2.56789
809.425	7.94696
809.61	7.55499
809.795	9.7057
809.98	8.7584
810.165	2.2081
810.35	5.04341
810.536	1.42675
810.721	2.85992
810.906	2.5987
811.091	6.15024
811.276	12.18093
811.461	9.24875
811.646	-1.53892
811.831	-7.73248
812.016	3.3812
812.201	6.99927
812.386	10.0961
812.571	1.03513
812.756	3.31709
812.941	1.65428
813.125	6.28209
813.31	11.36501
813.495	12.70184
813.68	12.01745
813.865	11.04008
814.05	9.93163
814.234	3.21813
814.419	-0.62732
814.604	3.47904
814.789	8.13853
814.973	8.46516
815.158	4.55442
815.343	9.77045
815.528	15.89757
815.712	16.02767
815.897	9.76955
816.081	6.93451
816.266	9.57498
816.451	11.59649
816.635	8.33673
816.82	7.32703
817.004	13.74489
817.189	15.70101
817.374	21.75796
817.558	11.00433
817.743	12.79553
817.927	5.53162
818.111	10.38875
818.296	13.45332
818.48	11.10627
818.665	5.8904
818.849	0.51157
819.034	-0.49898
819.218	5.30433
819.402	5.4369
819.587	7.32767
819.771	5.85922
819.955	6.37755
820.14	14.75362
820.324	14.23233
820.508	15.63533
820.692	10.32313
820.877	7.71605
821.061	4.58794
821.245	5.66442
821.429	7.52206
821.613	10.09826
821.798	12.63916
821.982	16.81152
822.166	13.09422
822.35	7.52099
822.534	4.88016
822.718	9.24887
822.902	8.92304
823.086	8.14081
823.27	9.54149
823.454	11.20393
823.638	2.85854
823.822	-3.07384
824.006	-2.97545
824.19	4.295
824.374	8.50005
824.558	6.96752
824.742	6.05458
824.926	4.7513
825.11	6.08747
825.294	8.92322
825.477	7.48794
825.661	10.9119
825.845	12.41151
826.029	8.59822
826.213	5.30593
826.396	9.54137
826.58	13.09384
826.764	7.15985
826.948	-1.67155
827.131	0.9365
827.315	4.65296
827.499	6.08715
827.682	2.27358
827.866	5.27237
828.05	9.05182
828.233	7.94336
828.417	4.68385
828.6	5.14042
828.784	3.80461
828.967	7.16101
829.151	4.35964
829.335	5.43452
829.518	3.25123
829.701	3.18606
829.885	12.70434
830.068	17.23483
830.252	13.35556
830.435	12.11408
830.619	4.4223
830.802	12.86442
830.985	5.14211
831.169	6.38075
831.352	1.16572
831.535	8.26826
831.719	10.68048
831.902	13.48255
832.085	9.27887
832.269	5.98624
832.452	-1.37976
832.635	1.16457
832.818	5.59814
833.002	13.3543
833.185	7.97623
833.368	12.80174
833.551	8.17495
833.734	5.27299
833.917	-5.19079
834.1	-2.15823
834.284	6.54703
834.467	8.6647
834.65	3.77422
834.833	2.1104
835.016	5.33715
835.199	8.46645
835.382	6.44621
835.565	6.18573
835.748	6.67432
835.931	9.31397
836.114	12.73677
836.297	8.14143
836.479	2.95909
836.662	4.10146
836.845	4.036
837.028	7.94767
837.211	7.42079
837.394	11.3327
837.577	14.52539
837.759	9.83495
837.942	12.47298
838.125	7.78046
838.308	8.20441
838.49	9.04973
838.673	8.03918
838.856	13.02702
839.039	8.43508
839.221	7.75055
839.404	4.19582
839.587	7.06441
839.769	10.77951
839.952	6.96677
840.134	8.89188
840.317	7.81676
840.499	10.29263
840.682	4.3253
840.865	3.15178
841.047	-0.49779
841.23	-0.07392
841.412	-1.57296
841.595	1.55602
841.777	-0.43272
841.959	1.00165
842.142	1.42494
842.324	0.57858
842.507	1.42574
842.689	3.25077
842.871	5.6949
843.054	5.17278
843.236	3.8374
843.418	11.49621
843.601	9.83456
843.783	6.02173
843.965	2.6983
844.147	7.35792
844.33	13.81082
844.512	15.40696
844.694	18.53689
844.876	16.02644
845.059	17.07119
845.241	6.544
845.423	-0.88674
845.605	-10.69687
845.787	-4.76474
845.969	0.2547
846.151	7.97773
846.333	8.23818
846.515	6.9022
846.697	4.3916
846.879	3.47935
847.061	13.2856
847.243	20.39184
847.425	26.87629
847.607	24.82485
847.789	22.02104
847.971	20.19446
848.153	24.95277
848.335	26.68007
848.517	29.41804
848.699	31.49962
848.881	35.18109
849.062	32.63997
849.244	26.93855
849.426	21.49668
849.608	27.84733
849.789	29.80131
849.971	32.11289
850.153	26.41284
850.335	27.22636
850.516	27.68582
850.698	33.77766
850.88	28.30728
851.061	29.67064
851.243	26.47601
851.425	27.16209
851.606	33.64856
851.788	34.78931
851.969	34.95287
852.151	24.8177
852.333	17.00075
852.514	18.10501
852.696	22.30979
852.877	28.792
853.059	32.407
853.24	26.11534
853.422	27.97189
853.603	25.36626
853.784	28.56482
853.966	23.90672
854.147	25.67186
854.329	25.63562
854.51	31.43942
854.691	25.37533
854.873	25.34554
855.054	24.46232
855.235	28.37513
855.416	27.62458
855.598	24.29859
855.779	19.99501
855.96	20.02798
856.141	21.10849
856.323	23.25818
856.504	23.12935
856.685	14.23191
856.866	12.47249
857.047	9.11642
857.228	7.09581
857.409	7.09726
857.591	10.06232
857.772	16.64557
857.953	14.07127
858.134	11.98502
858.315	5.43441
858.496	13.61593
858.677	14.52775
858.858	13.51692
859.039	8.78886
859.22	8.59696
859.401	15.24598
859.582	15.44314
859.762	15.70118
859.943	12.18176
860.124	12.31262
860.305	8.76034
860.486	6.57628
860.667	2.99102
860.848	2.56737
861.028	7.13072
861.209	11.53108
861.39	17.00513
861.571	15.60252
861.751	14.39397
861.932	8.56141
862.113	16.0618
862.293	14.8894
862.474	20.03972
862.655	9.28074
862.835	10.81453
863.016	8.49968
863.197	7.88036
863.377	6.02228
863.558	-3.23463
863.738	-5.38572
863.919	-3.23548
864.099	1.68651
864.28	7.78037
864.46	1.1312
864.641	-0.46578
864.821	1.7511
865.002	5.20647
865.182	5.89102
865.363	3.12142
865.543	7.81465
865.723	12.08552
865.904	9.77111
866.084	4.78392
866.264	0.22043
866.445	6.57564
866.625	4.75061
866.805	9.37803
866.986	4.03295
867.166	7.32325
867.346	8.52989
867.526	6.50927
867.707	6.41142
867.887	2.01077
868.067	1.71768
868.247	-3.98472
868.427	-1.01891
868.607	-0.20428
868.788	2.11014
868.968	-3.0063
869.148	-0.33472
869.328	-0.43256
869.508	-0.30256
869.688	-0.13866
869.868	1.91513
870.048	6.21714
870.228	4.68555
870.408	5.04491
870.588	4.00179
870.768	2.73046
870.948	4.81431
871.128	3.02184
871.307	5.17322
871.487	1.00214
871.667	6.4135
871.847	7.48983
872.027	6.47961
872.207	9.34797
872.387	7.97848
872.566	12.83352
872.746	7.97622
872.926	7.48689
873.106	5.98954
873.285	5.8925
873.465	7.9787
873.645	4.09845
873.824	5.63111
874.004	6.08777
874.184	11.79155
874.363	9.86691
874.543	6.15075
874.723	9.37779
874.902	6.54225
875.082	10.78017
875.261	8.23601
875.441	8.36652
875.62	6.31232
875.8	2.66437
875.979	-1.99756
876.159	-4.01827
876.338	-4.63743
876.518	0.44814
876.697	-0.10586
876.876	3.70824
877.056	4.8163
877.235	9.37904
877.415	-0.98705
877.594	-2.87745
877.773	-7.21202
877.953	-0.49678
878.132	1.23086
878.311	1.00262
878.49	4.35808
878.67	-1.01939
878.849	4.84855
879.028	5.14337
879.207	13.97551
879.387	10.29168
879.566	6.41302
879.745	6.57504
879.924	5.40134
880.103	8.75909
880.282	6.25103
880.461	14.07635
880.64	7.75293
880.819	10.29582
880.998	6.57621
881.178	10.97603
881.357	6.151
881.536	1.32822
881.715	-1.11655
881.893	4.68645
882.072	8.56438
882.251	12.86794
882.43	8.27118
882.609	9.51116
882.788	4.81674
882.967	8.33671
883.146	4.94678
883.325	7.61985
883.503	6.21851
883.682	7.22871
883.861	9.21727
884.04	7.4895
884.219	8.5328
884.397	3.67606
884.576	1.42707
884.755	-1.63719
884.933	3.28408
885.112	8.20688
885.291	10.39002
885.469	9.80447
885.648	5.98996
885.827	8.46978
886.005	6.21941
886.184	3.28521
886.363	4.75208
886.541	9.51155
886.72	16.99925
886.898	13.0214
887.077	7.51238
887.255	2.95889
887.434	2.7619
887.612	1.49037
887.791	7.55229
887.969	12.11789
888.147	12.11805
888.326	5.37169
888.504	5.56448
888.682	9.15067
888.861	14.26668
889.039	3.15166
889.218	5.10805
889.396	2.14334
889.574	7.48992
889.752	4.13099
889.931	0.21984
890.109	-1.93146
890.287	-4.27817
890.465	-2.58378
890.643	2.63056
890.822	6.3784
891	8.17117
891.178	10.19499
891.356	5.20861
891.534	7.36112
891.712	6.96638
891.89	15.01844
892.068	12.11645
892.247	14.43205
892.425	10.32418
892.603	8.5964
892.781	3.05568
892.959	1.62136
893.137	3.6425
893.314	0.3177
893.492	4.29485
893.67	3.41476
893.848	7.52109
894.026	0.67559
894.204	-2.22432
894.382	-2.41779
894.56	3.74228
894.738	10.42256
894.915	9.6712
895.093	10.09534
895.271	6.80386
895.449	11.62489
895.626	16.35216
895.804	17.13431
895.982	16.68078
896.16	15.27888
896.337	17.886
896.515	8.75943
896.693	-4.57174
896.87	-7.89574
897.048	-8.64486
897.225	-1.86591
897.403	5.00941
897.581	5.9221
897.758	5.04203
897.936	-3.52861
898.113	-4.21302
898.291	0.93696
898.468	4.88087
898.646	8.56374
898.823	4.84791
899.001	3.60976
899.178	3.80515
899.356	1.78413
899.533	5.3365
899.71	9.54319
899.888	10.26049
900.065	6.87187
900.242	9.02171
900.42	9.99981
900.597	12.34457
900.774	3.21716
900.952	6.08655
901.129	7.03322
901.306	9.70663
901.483	7.3912
901.661	4.00125
901.838	9.34726
902.015	12.86779
902.192	12.83571
902.369	8.79331
902.546	2.30652
902.723	2.40367
902.901	1.10013
903.078	-1.27924
903.255	-2.84383
903.432	1.65297
903.609	3.54345
903.786	7.32564
903.963	0.80818
904.14	5.3714
904.317	1.62181
904.494	6.28218
904.671	11.95572
904.848	13.25986
905.024	10.32676
905.201	-0.13873
905.378	7.38849
905.555	7.42106
905.732	11.98522
905.909	-1.21063
906.086	1.00665
906.262	-1.3731
906.439	9.7418
906.616	10.62089
906.793	12.34899
906.969	9.90172
907.146	6.38172
907.323	4.55583
907.5	-4.11627
907.676	-0.59629
907.853	-1.50891
908.03	0.12145
908.206	2.24145
908.383	9.28122
908.559	12.80222
908.736	5.2064
908.912	1.03504
909.089	-0.88755
909.266	4.26313
909.442	-0.75725
909.619	6.34751
909.795	3.57634
909.972	8.62875
910.148	7.09758
910.324	6.21747
910.501	9.60995
910.677	5.60052
910.854	12.47586
911.03	4.78055
911.206	8.68964
911.383	-2.16337
911.559	0.34721
911.735	-8.51696
911.912	-3.82219
912.088	-3.10521
912.264	4.29336
912.44	10.51799
912.617	14.46203
912.793	11.46423
912.969	2.6969
913.145	-4.34357
913.321	2.33747
913.498	2.63118
913.674	7.45569
913.85	-0.98502
914.026	0.77495
914.202	-3.26749
914.378	2.14236
914.554	2.69644
914.73	1.71968
914.906	-5.32096
915.082	-4.37555
915.258	6.57634
915.434	8.30419
915.61	7.29396
915.786	0.74193
915.962	4.49145
916.138	5.01306
916.314	0.09065
916.49	-3.88713
916.665	-1.18104
916.841	0.54661
917.017	4.686
917.193	2.27291
917.369	-0.36656
917.545	2.60117
917.72	-0.03922
917.896	3.05661
918.072	-3.95233
918.247	1.0348
918.423	0.74125
918.599	8.92343
918.775	7.00088
918.95	0.77856
919.126	-7.9247
919.301	-4.37373
919.477	4.71746
919.653	8.82405
919.828	3.18655
920.004	0.67676
920.179	2.7906
920.355	5.10451
920.53	8.5271
920.706	7.32534
920.881	3.41438
921.057	1.00193
921.232	3.25232
921.408	9.34808
921.583	8.01152
921.759	1.91559
921.934	-0.56223
922.109	1.9151
922.285	4.19684
922.46	6.31592
922.635	7.91358
922.811	6.87021
922.986	6.93462
923.161	1.75099
923.336	0.44785
923.512	-6.65751
923.687	-2.02837
923.862	-3.42969
924.037	1.10071
924.212	0.51404
924.388	5.23951
924.563	5.50003
924.738	0.38149
924.913	1.19578
925.088	-3.75778
925.263	3.51284
925.438	1.85099
925.613	5.50139
925.788	4.09863
925.963	4.979
926.138	0.77403
926.313	1.19901
926.488	-1.01781
926.663	0.80841
926.838	-3.85402
927.013	-1.66987
927.188	5.66291
927.363	13.68176
927.538	12.44286
927.713	7.19542
927.888	7.45737
928.062	8.56498
928.237	6.34783
928.412	3.73874
928.587	2.79416
928.761	1.26253
928.936	2.07852
929.111	2.14364
929.286	7.45736
929.46	3.83858
929.635	5.20791
929.81	1.03499
929.984	1.58871
930.159	5.82649
930.334	6.70631
930.508	8.10788
930.683	4.58734
930.857	11.40137
931.032	13.45536
931.206	11.23849
931.381	8.04355
931.556	-1.44266
931.73	4.29721
931.904	3.90516
932.079	9.21843
932.253	2.53327
932.428	2.69679
932.602	1.13262
932.777	2.73033
932.951	-3.43029
933.125	-4.86423
933.3	-6.07082
933.474	-0.20292
933.648	3.12157
933.823	1.655
933.997	-1.11614
934.171	-8.94021
934.345	-10.0486
934.52	-8.51684
934.694	0.449
934.868	8.76189
935.042	9.87052
935.217	8.69656
935.391	3.05642
935.565	-0.10551
935.739	-1.60515
935.913	-0.0738
936.087	6.73867
936.261	6.11906
936.435	7.78202
936.609	2.33831
936.783	9.34653
936.957	6.90203
937.131	6.08724
937.305	1.03523
937.479	4.13177
937.653	6.93458
937.827	6.57574
938.001	3.60983
938.175	1.00262
938.349	-0.36635
938.523	-3.95208
938.697	-2.25734
938.87	-2.32244
939.044	4.9131
939.218	2.89284
939.392	4.97958
939.566	4.09952
939.739	3.57746
939.913	6.25009
940.087	3.54522
940.261	8.98915
940.434	5.92455
940.608	1.16629
940.782	-3.16931
940.955	-7.11294
941.129	-2.32223
941.302	-1.50739
941.476	2.69754
941.65	-2.81106
941.823	-2.77846
941.997	1.26214
942.17	2.85829
942.344	6.67172
942.517	8.6939
942.691	5.82667
942.864	4.65364
943.038	-1.80083
943.211	8.59746
943.385	-0.81968
943.558	-2.77401
943.731	-6.52312
943.905	2.17676
944.078	1.06775
944.251	2.27452
944.425	-0.26789
944.598	5.371
944.771	6.44633
944.945	8.72813
945.118	4.3274
945.291	1.75246
945.464	-1.86596
945.638	0.54568
945.811	-0.33466
945.984	5.75987
946.157	8.30306
946.33	8.49861
946.503	2.99039
946.677	-0.17144
946.85	5.85857
947.023	6.99998
947.196	10.94485
947.369	5.86043
947.542	7.19684
947.715	2.50202
947.888	2.40374
948.061	3.34886
948.234	5.50003
948.407	2.37018
948.58	2.17418
948.753	0.96809
948.926	8.27116
949.099	4.81665
949.271	11.26803
949.444	7.12792
949.617	7.87749
949.79	1.13287
949.963	2.99056
950.136	3.51213
950.308	1.52389
950.481	-4.57098
950.654	-7.37527
950.827	-1.18181
950.999	5.17298
951.172	7.25998
951.345	1.19709
951.517	-0.49636
951.69	0.77513
951.863	4.32806
952.035	5.98995
952.208	13.22627
952.381	12.89994
952.553	10.1291
952.726	3.8706
952.898	2.76258
953.071	2.14332
953.243	4.49106
953.416	1.06952
953.588	2.40628
953.761	-2.6144
953.933	-2.90914
954.106	-3.72449
954.278	-0.75821
954.45	3.90334
954.623	2.63212
954.795	2.17551
954.967	-1.3125
955.14	5.07662
955.312	2.50171
955.484	4.68577
955.657	1.39322
955.829	11.13642
956.001	7.45292
956.173	10.87612
956.346	5.27389
956.518	13.0979
956.69	7.29521
956.862	2.01401
957.034	1.91578
957.207	1.45979
957.379	5.11015
957.551	1.85011
957.723	2.72996
957.895	5.07666
958.067	1.4909
958.239	4.52207
958.411	3.93507
958.583	8.33492
958.755	8.8894
958.927	6.54278
959.099	3.41442
959.271	-1.44238
959.443	4.19704
959.615	4.62096
959.787	5.69647
959.959	-3.07287
960.13	1.00165
960.302	4.65185
960.474	9.60745
960.646	10.03089
960.818	10.7504
960.99	14.30351
961.161	10.52257
961.333	11.04284
961.505	10.29213
961.677	7.13106
961.848	3.44746
962.02	-2.84343
962.192	4.2604
962.363	9.57132
962.535	11.72323
962.707	4.68303
962.878	-0.36717
963.05	1.49145
963.221	9.15204
963.393	1.55787
963.564	-1.24609
963.736	-2.90897
963.907	-0.13859
964.079	-2.45244
964.25	-2.41883
964.422	3.51389
964.593	5.20856
964.765	4.42541
964.936	2.24053
965.108	3.28339
965.279	3.1211
965.45	6.2837
965.622	9.54342
965.793	5.24021
965.964	6.74092
966.136	1.42754
966.307	5.86061
966.478	2.11002
966.65	7.65209
966.821	9.15228
966.992	6.3166
967.163	2.46971
967.334	-0.5946
967.506	5.63133
967.677	8.30449
967.848	3.74079
968.019	3.93751
968.19	2.66596
968.361	6.83848
968.532	6.86993
968.703	6.02243
968.874	5.56603
969.045	3.54452
969.216	9.15131
969.387	13.71432
969.558	13.87722
969.729	8.27056
969.9	-6.13504
970.071	-7.01517
970.242	-9.42729
970.413	2.17567
970.584	5.56562
970.755	6.11978
970.926	4.48976
971.097	-3.3326
971.267	1.91611
971.438	6.12064
971.609	6.02304
971.78	2.63241
971.951	-8.0905
972.121	-1.11512
972.292	-1.47389
972.463	5.82714
972.633	7.91196
972.804	6.93409
972.975	6.21673
973.145	1.03506
973.316	5.63163
973.487	4.42559
973.657	10.29531
973.828	4.10096
973.998	4.42672
974.169	-3.62704
974.339	-4.18056
974.51	0.60935
974.68	-0.62936
974.851	10.45518
975.021	9.18596
975.192	13.39101
975.362	6.8047
975.533	3.67531
975.703	4.42414
975.874	7.78271
976.044	7.91306
976.214	3.93708
976.385	0.77402
976.555	3.25166
976.725	0.67764
976.896	-3.36503
977.066	-8.77598
977.236	-2.94256
977.406	-0.04073
977.577	1.4914
977.747	0.48083
977.917	2.95864
978.087	7.42311
978.257	11.00977
978.427	4.19705
978.598	4.55631
978.768	2.14319
978.938	7.71598
979.108	7.19348
979.278	8.56368
979.448	5.23968
979.618	2.66562
979.788	-0.98604
979.958	-1.93092
980.128	-5.94195
980.298	-2.58389
980.468	-1.47575
980.638	3.74181
980.808	-0.59389
980.978	5.37131
981.148	4.03438
981.317	10.68408
981.487	6.70717
981.657	1.52395
981.827	-4.21324
981.997	-5.74565
982.167	-0.33424
982.336	-0.46465
982.506	2.1104
982.676	0.87189
982.846	-1.53993
983.015	1.78612
983.185	2.30764
983.355	3.80683
983.524	-3.39831
983.694	-4.8653
983.864	-3.0073
984.033	0.74206
984.203	4.6211
984.372	4.09948
984.542	-0.85585
984.712	-8.84457
984.881	-5.87876
985.051	-3.33577
985.22	2.82749
985.39	1.97982
985.559	-1.44217
985.728	2.24216
985.898	2.3074
986.067	4.29555
986.237	-2.06127
986.406	-9.16799
986.576	-5.58251
986.745	0.08906
986.914	4.00205
987.084	4.78498
987.253	5.46968
987.422	6.54528
987.591	6.34849
987.761	3.15362
987.93	2.5343
988.099	5.04494
988.268	6.90199
988.438	10.16161
988.607	4.97823
988.776	-0.17073
988.945	-1.73539
989.114	-5.12674
989.283	-0.33499
989.452	0.44709
989.621	6.7392
989.791	1.88194
989.96	1.3931
990.129	3.70844
990.298	7.88081
990.467	5.72952
990.636	-0.23694
990.805	-7.0172
990.974	-0.20226
991.142	3.93661
991.311	4.5908
991.48	-3.5607
991.649	-6.13435
991.818	1.58912
991.987	2.99092
992.156	6.80587
992.325	3.15491
992.493	8.51784
992.662	8.02681
992.831	6.98466
993	4.03423
993.168	-0.9851
993.337	0.64373
993.506	-5.81199
993.675	-1.60681
993.843	0.83871
994.012	7.06536
994.181	9.86848
994.349	10.65051
994.518	12.73819
994.686	10.39018
994.855	8.20559
995.024	3.60866
995.192	-1.99676
995.361	-5.19112
995.529	-8.93956
995.698	-5.74481
995.866	-6.29889
996.035	-0.00851
996.203	3.57763
996.371	11.07373
996.54	4.45695
996.708	-4.11698
996.877	-4.76728
997.045	-4.30959
997.213	-4.24528
997.382	-7.34247
997.55	-0.369
997.718	-1.0195
997.887	1.19755
998.055	4.45591
998.223	8.13932
998.391	2.30288
998.56	0.93535
998.728	1.00025
998.896	6.44577
999.064	-2.32143
999.232	7.74747
999.401	7.02944
999.569	15.83099
999.737	8.46763
999.905	6.15339
1000.073	0.74151
1000.241	-2.02925
1000.409	-2.6484
1000.577	-1.964
1000.745	3.96931
1000.913	5.24034
1001.081	7.84851
1001.249	5.23958
1001.417	6.08745
1001.585	7.12989
1001.753	7.29399
1001.921	7.42394
1002.089	6.60881
1002.256	6.0871
1002.424	1.42611
1002.592	2.59987
1002.76	1.19789
1002.928	3.51145
1003.096	3.54327
1003.263	-2.22523
1003.431	5.46939
1003.599	-3.46215
1003.767	1.71968
1003.934	1.19778
1004.102	5.59943
1004.27	7.16378
1004.437	2.89299
1004.605	-1.60403
1004.773	-3.00539
1004.94	0.74382
1005.108	5.72968
1005.275	4.78437
1005.443	-0.98606
1005.61	-7.73343
1005.778	-8.51629
1005.945	-6.9512
1006.113	-0.07346
1006.28	5.59863
1006.448	14.04033
1006.615	9.02044
1006.783	5.76105
1006.95	-4.73465
1007.118	0.38306
1007.285	-2.09395
1007.452	-3.13702
1007.62	-3.5282
1007.787	-2.02906
1007.954	1.91469
1008.122	3.38112
1008.289	2.59817
1008.456	3.47889
1008.623	3.70724
1008.791	4.68578
1008.958	-2.29076
1009.125	-6.7553
1009.292	-3.6921
1009.459	4.00151
1009.627	9.60638
1009.794	8.07445
1009.961	-0.07468
1010.128	-2.42082
1010.295	2.04647
1010.462	11.36853
1010.629	8.66307
1010.796	0.44793
1010.963	2.435
1011.13	1.13038
1011.297	3.99888
1011.464	1.94501
1011.631	4.61871
1011.798	7.61733
1011.965	4.71813
1012.132	8.9553
1012.299	8.6938
1012.466	12.89731
1012.633	8.07276
1012.799	4.68369
1012.966	0.41562
1013.133	-2.94065
1013.3	-2.09295
1013.467	-5.84232
1013.633	0.21969
1013.8	1.0347
1013.967	2.24101
1014.134	-1.18097
1014.3	-2.9089
1014.467	-0.98566
1014.634	4.22849
1014.8	6.31388
1014.967	2.76065
1015.134	5.33631
1015.3	8.36934
1015.467	16.22581
1015.633	18.89812
1015.8	11.2358
1015.966	3.57507
1016.133	-6.00681
1016.3	2.73352
1016.466	5.56918
1016.632	9.44795
1016.799	3.41456
1016.965	1.58939
1017.132	-0.2037
1017.298	-1.76872
1017.465	-0.56292
1017.631	0.02385
1017.797	3.67519
1017.964	3.54502
1018.13	1.9478
1018.296	3.25145
1018.463	4.52268
1018.629	8.76153
1018.795	1.72023
1018.961	-2.97315
1019.128	-5.87576
1019.294	0.8072
1019.46	8.14132
1019.626	4.26234
1019.792	4.88113
1019.959	3.96939
1020.125	2.11168
1020.291	2.7327
1020.457	0.80804
1020.623	8.98945
1020.789	6.3483
1020.955	1.58945
1021.121	2.27221
1021.287	-2.16152
1021.453	4.35752
1021.619	3.57825
1021.785	5.5343
1021.951	4.42656
1022.117	0.12296
1022.283	1.85022
1022.449	1.98063
1022.615	2.56733
1022.781	4.32673
1022.946	1.45798
1023.112	-3.78814
1023.278	-6.42742
1023.444	-6.55794
1023.61	3.77423
1023.775	5.33877
1023.941	6.28406
1024.107	1.23038
1024.273	1.49225
1024.438	4.97889
1024.604	10.18633
1024.77	1.67939
1024.935	-1.15518
1025.101	-3.42847
1025.267	7.74935
1025.432	13.16154
1025.598	8.17421
1025.763	3.80732
1025.929	-0.00758
1026.095	-1.05093
1026.26	-0.65964
1026.426	-1.70331
1026.591	1.78443
1026.757	4.26075
1026.922	5.07595
1027.087	3.93494
1027.253	-2.4535
1027.418	0.12055
1027.584	1.91361
1027.749	11.20277
1027.914	10.58661
1028.08	11.49956
1028.245	6.05708
1028.41	7.45728
1028.576	7.94586
1028.741	9.77122
1028.906	1.94698
1029.072	1.88147
1029.237	0.05624
1029.402	5.10718
1029.567	2.79309
1029.732	4.032
1029.898	2.92596
1030.063	2.37183
1030.228	-1.40894
1030.393	-3.85383
1030.558	-1.01754
1030.723	3.05606
1030.888	4.62065
1031.053	5.33773
1031.218	1.03557
1031.383	-1.60507
1031.548	-3.20219
1031.713	-3.16989
1031.878	-0.07272
1032.043	-1.99617
1032.208	4.59013
1032.373	5.56744
1032.538	7.03434
1032.703	-0.39855
1032.868	-3.13678
1033.033	-10.569
1033.198	-9.36393
1033.362	-6.85341
1033.527	-0.49695
1033.692	4.26209
1033.857	-2.61631
1034.021	-0.9867
1034.186	-6.39848
1034.351	2.46803
1034.516	1.68579
1034.68	3.05582
1034.845	-1.60515
1035.01	0.02539
1035.174	5.24022
1035.339	5.76166
1035.504	11.0383
1035.668	13.41999
1035.833	13.97412
1035.997	7.97967
1036.162	3.80681
1036.326	1.23148
1036.491	-2.41918
1036.655	-2.35547
1036.82	4.55443
1036.984	7.25969
1037.149	6.4774
1037.313	-1.11666
1037.478	-3.78913
1037.642	-3.07093
1037.807	3.51203
1037.971	6.11923
1038.135	5.76014
1038.3	3.54449
1038.464	5.14226
1038.628	7.25833
1038.792	9.90013
1038.957	11.98449
1039.121	10.16124
1039.285	4.87965
1039.449	1.55621
1039.614	0.51367
1039.778	1.10073
1039.942	-1.8001
1040.106	-7.01616
1040.27	-3.3666
1040.434	-2.03071
1040.599	9.47758
1040.763	7.58844
1040.927	12.4134
1041.091	2.53474
1041.255	4.45669
1041.419	-0.59627
1041.583	-1.14951
1041.747	-3.82182
1041.911	-4.53883
1042.075	-2.64871
1042.239	-0.17259
1042.403	1.84837
1042.567	5.66217
1042.731	3.05569
1042.894	2.20846
1043.058	1.81802
1043.222	-4.04785
1043.386	-4.11322
1043.55	-6.81912
1043.714	0.48158
1043.877	3.25213
1044.041	2.95867
1044.205	7.68481
1044.369	7.13135
1044.532	8.59791
1044.696	3.02395
1044.86	0.2532
1045.023	4.74894
1045.187	2.23891
1045.351	4.71617
1045.514	-2.41985
1045.678	1.75252
1045.841	0.8393
