Data from H2O_Subt9__0__00040.txt Node

Date: Tue Nov 04 10:20:29 EST 2025
User: brett
Spectrometer: USB4F03499
Trigger mode: 4
Integration Time (sec): 3.000000E-2
Scans to average: 15
Electric dark correction enabled: true
Nonlinearity correction enabled: true
Boxcar width: 1
XAxis mode: Wavelengths
Number of Pixels in Spectrum: 3648
>>>>>Begin Spectral Data<<<<<
345.386	2.88652
345.605	2.88652
345.824	5.59486
346.044	-0.27696
346.263	-0.44068
346.482	-4.8772
346.701	3.40709
346.92	5.10236
347.139	3.66804
347.358	-0.79772
347.577	-0.50321
347.796	0.21361
348.015	3.01637
348.234	-1.22274
348.453	-2.91736
348.672	-5.62337
348.891	-4.64504
349.11	4.44922
349.329	9.53359
349.548	12.01007
349.767	17.81371
349.986	22.79799
350.205	28.53678
350.424	24.42971
350.643	26.09411
350.862	20.02852
351.08	19.40332
351.299	16.40406
351.518	18.19819
351.737	17.93781
351.956	22.23668
352.174	26.53795
352.393	27.90895
352.612	24.84581
352.831	25.27305
353.049	28.3019
353.268	25.11061
353.487	30.06283
353.705	21.91858
353.924	23.8082
354.143	19.76543
354.361	24.94563
354.58	27.97794
354.798	32.56682
355.017	38.62539
355.236	38.81973
355.454	31.2313
355.673	31.19443
355.891	30.41131
356.11	31.58521
356.328	33.37909
356.547	40.01996
356.765	46.11034
356.984	42.56228
357.202	39.01539
357.42	43.89553
357.639	42.84937
357.857	44.17977
358.076	42.97701
358.294	49.75762
358.512	51.35615
358.731	54.96581
358.949	55.2146
359.167	53.74267
359.386	50.39526
359.604	47.4596
359.822	53.49119
360.04	51.59973
360.259	54.95603
360.477	51.99188
360.695	55.24153
360.913	60.03449
361.131	62.27613
361.35	57.88058
361.568	56.47727
361.786	56.14347
362.004	61.49252
362.222	59.05074
362.44	58.64103
362.658	57.03758
362.876	55.05178
363.094	57.81828
363.312	57.76142
363.53	57.04398
363.749	53.2968
363.967	53.55503
364.184	53.84528
364.402	59.09031
364.62	58.21278
364.838	53.46605
365.056	44.04947
365.274	42.64397
365.492	41.01621
365.71	38.02329
365.928	37.67031
366.146	37.01787
366.364	42.39595
366.581	33.66819
366.799	32.6634
367.017	28.46733
367.235	25.66542
367.453	24.71691
367.67	22.50074
367.888	24.61752
368.106	26.30223
368.323	22.03167
368.541	16.36233
368.759	14.64678
368.977	21.19477
369.194	31.2326
369.412	32.43786
369.629	26.60339
369.847	21.09469
370.065	22.98422
370.282	25.59231
370.5	33.44149
370.717	28.48808
370.935	25.26407
371.152	17.87117
371.37	20.99751
371.588	28.09664
371.805	39.82212
372.022	33.17702
372.24	33.30902
372.457	25.32788
372.675	40.67727
372.892	34.22647
373.11	33.99919
373.327	25.26758
373.544	30.15525
373.762	28.23383
373.979	29.7269
374.196	29.49795
374.414	35.71888
374.631	37.44856
374.848	38.29336
375.066	43.43741
375.283	40.24427
375.5	41.09154
375.717	38.03466
375.935	38.06581
376.152	35.91369
376.369	37.24509
376.586	39.74812
376.803	45.32018
377.02	43.79152
377.238	45.00335
377.455	41.35214
377.672	41.15824
377.889	44.47562
378.106	44.54894
378.323	44.90894
378.54	44.70918
378.757	42.45738
378.974	45.93513
379.191	42.62225
379.408	46.88745
379.625	41.02166
379.842	46.13693
380.059	50.82619
380.276	56.79187
380.493	51.70289
380.71	45.5154
380.927	43.97474
381.143	51.14319
381.36	54.29421
381.577	62.86473
381.794	58.42863
382.011	55.43497
382.228	45.66178
382.444	44.95101
382.661	51.27428
382.878	50.66486
383.095	50.50002
383.311	51.83345
383.528	55.12301
383.745	58.02361
383.962	53.40349
384.178	44.4803
384.395	41.94038
384.612	42.81256
384.828	50.23305
385.045	44.76112
385.261	38.90663
385.478	36.49934
385.695	39.68818
385.911	37.34184
386.128	39.16808
386.344	39.30396
386.561	49.84883
386.777	48.90152
386.994	57.26379
387.21	56.35641
387.427	54.50421
387.643	51.93735
387.86	56.23168
388.076	65.64102
388.292	58.89208
388.509	53.72064
388.725	47.52349
388.942	48.37839
389.158	43.03494
389.374	39.1962
389.591	41.63731
389.807	43.55945
390.023	48.90585
390.239	50.4063
390.456	48.02564
390.672	47.96149
390.888	46.94298
391.104	52.08902
391.321	52.02176
391.537	48.77343
391.753	44.5052
391.969	42.2187
392.185	46.8744
392.401	50.39988
392.618	57.01351
392.834	55.28461
393.05	56.64477
393.266	50.942
393.482	47.75093
393.698	45.86209
393.914	44.30472
394.13	51.01764
394.346	52.15724
394.562	54.79943
394.778	53.81536
394.994	52.8761
395.21	53.15934
395.426	50.20335
395.642	51.41083
395.858	47.3467
396.073	52.58265
396.289	50.92047
396.505	46.49217
396.721	47.92965
396.937	52.22247
397.153	55.25019
397.369	56.35881
397.584	51.15263
397.8	49.13078
398.016	43.03649
398.232	42.48036
398.447	50.27044
398.663	44.67596
398.879	44.25489
399.094	42.91234
399.31	44.96025
399.526	47.88748
399.741	41.15284
399.957	44.18487
400.173	42.65796
400.388	48.74672
400.604	42.3596
400.82	44.11441
401.035	45.90414
401.251	47.79593
401.466	47.09036
401.682	41.68315
401.897	45.42472
402.113	43.40103
402.328	45.55349
402.544	44.96679
402.759	44.05346
402.974	41.18348
403.19	43.37246
403.405	36.4693
403.621	28.815
403.836	27.02188
404.051	35.49397
404.267	51.32
404.482	49.10119
404.697	45.44962
404.913	36.07651
405.128	39.463
405.343	40.83448
405.559	39.82518
405.774	38.55809
405.989	39.95213
406.204	47.99424
406.42	48.0595
406.635	53.10789
406.85	49.29438
407.065	42.8462
407.28	39.91847
407.495	42.43117
407.71	46.30486
407.926	41.06307
408.141	40.14368
408.356	44.76614
408.571	51.8282
408.786	53.36259
409.001	51.12179
409.216	49.26935
409.431	45.26327
409.646	46.50178
409.861	44.99609
410.076	49.46346
410.291	45.06359
410.506	49.9553
410.721	49.29866
410.936	59.19834
411.15	51.41236
411.365	48.83542
411.58	45.54756
411.795	52.29082
412.01	55.58353
412.225	60.60093
412.439	59.91484
412.654	60.40332
412.869	55.38636
413.084	52.81552
413.299	51.02923
413.513	45.36254
413.728	44.34697
413.943	40.82574
414.157	40.20273
414.372	42.02525
414.587	45.31134
414.801	51.42887
415.016	49.28643
415.231	50.20599
415.445	47.44076
415.66	49.65338
415.874	46.06806
416.089	45.16139
416.304	43.82644
416.518	50.76583
416.733	51.12173
416.947	48.80881
417.162	43.88175
417.376	40.75306
417.59	40.918
417.805	39.46069
418.019	40.7002
418.234	47.18273
418.448	49.19813
418.663	57.05462
418.877	60.56668
419.091	54.15174
419.306	52.02631
419.52	44.31124
419.734	53.06658
419.949	47.53363
420.163	50.6287
420.377	45.58511
420.591	41.1539
420.806	33.49975
421.02	33.95779
421.234	40.72798
421.448	44.9632
421.663	47.21388
421.877	46.08111
422.091	46.24194
422.305	45.84581
422.519	47.30807
422.733	43.43437
422.947	40.24615
423.161	34.48188
423.376	42.09712
423.59	44.11662
423.804	45.80789
424.018	39.87942
424.232	40.88276
424.446	42.87097
424.66	42.98028
424.874	45.26752
425.088	47.65912
425.302	49.31526
425.515	49.82417
425.729	49.74682
425.943	52.87053
426.157	50.88184
426.371	54.8416
426.585	52.62172
426.799	56.44258
427.013	53.1638
427.226	55.90486
427.44	49.49071
427.654	45.41734
427.868	42.58354
428.081	35.93958
428.295	39.46188
428.509	38.71421
428.723	45.18866
428.936	47.14281
429.15	44.07713
429.364	41.05728
429.577	35.58737
429.791	36.20921
430.005	42.62034
430.218	47.76764
430.432	53.33415
430.645	43.59781
430.859	34.96639
431.073	25.78731
431.286	38.58981
431.5	49.4604
431.713	58.99981
431.927	50.92481
432.14	46.50016
432.354	36.47426
432.567	37.18894
432.781	31.39117
432.994	36.10773
433.207	40.86324
433.421	41.4515
433.634	42.62435
433.848	36.49897
434.061	36.98475
434.274	40.79525
434.488	48.66541
434.701	54.10278
434.914	45.76876
435.127	41.96698
435.341	35.94575
435.554	37.96271
435.767	39.62836
435.98	44.67321
436.194	48.48833
436.407	54.80069
436.62	55.0346
436.833	54.28364
437.046	51.2277
437.259	45.94375
437.473	45.3938
437.686	45.51586
437.899	50.33649
438.112	57.94917
438.325	50.65874
438.538	52.74618
438.751	50.70358
438.964	58.77979
439.177	54.96566
439.39	55.89847
439.603	51.4103
439.816	52.03145
440.029	53.03179
440.242	56.08011
440.455	63.60175
440.668	62.24618
440.881	61.40894
441.094	62.60899
441.306	68.92066
441.519	75.26118
441.732	70.44584
441.945	66.98995
442.158	58.04014
442.37	62.2454
442.583	66.65692
442.796	71.10988
443.009	69.21296
443.222	64.38529
443.434	68.03536
443.647	64.02997
443.86	61.68647
444.072	56.5485
444.285	53.26121
444.498	53.97993
444.71	54.69693
444.923	59.22211
445.136	52.34939
445.348	51.9966
445.561	53.89428
445.773	55.59126
445.986	58.84156
446.198	57.31283
446.411	62.00131
446.623	57.31084
446.836	58.77714
447.048	52.22755
447.261	47.82952
447.473	45.63164
447.686	51.5876
447.898	49.83225
448.11	61.63174
448.323	62.09005
448.535	62.05419
448.748	50.42619
448.96	44.04424
449.172	46.52185
449.385	44.95985
449.597	45.38651
449.809	42.81454
450.021	41.08892
450.234	39.81652
450.446	42.61325
450.658	50.43564
450.87	59.31304
451.083	61.58741
451.295	60.1407
451.507	57.38666
451.719	64.90701
451.931	62.88637
452.143	64.81132
452.356	60.90961
452.568	70.14631
452.78	71.21595
452.992	72.67554
453.204	64.90494
453.416	60.70152
453.628	66.04462
453.84	69.85261
454.052	81.08245
454.264	82.63212
454.476	89.5966
454.688	87.38328
454.9	83.7184
455.112	74.27748
455.324	74.15384
455.536	77.43884
455.747	81.0131
455.959	76.96822
456.171	74.75738
456.383	75.04972
456.595	79.2805
456.807	80.45366
457.018	77.27618
457.23	73.3018
457.442	69.1614
457.654	71.26914
457.865	69.70129
458.077	69.08825
458.289	68.15227
458.501	76.0778
458.712	84.99965
458.924	89.9778
459.136	82.1309
459.347	69.14249
459.559	62.18484
459.77	58.11991
459.982	63.2513
460.194	59.73037
460.405	63.76706
460.617	61.53314
460.828	66.81096
461.04	67.1554
461.251	69.62735
461.463	65.78212
461.674	61.12998
461.886	46.8059
462.097	46.57882
462.309	48.4488
462.52	59.46118
462.731	58.48759
462.943	55.33004
463.154	51.05079
463.366	54.11646
463.577	49.35406
463.788	51.84648
464	48.41845
464.211	50.54175
464.422	52.00177
464.634	54.64317
464.845	56.78717
465.056	57.46715
465.267	54.15011
465.478	61.54785
465.69	58.28617
465.901	57.34044
466.112	52.90968
466.323	51.87251
466.534	57.13492
466.745	57.32752
466.957	57.25962
467.168	52.71151
467.379	52.78397
467.59	59.06437
467.801	59.61369
468.012	57.03056
468.223	53.55276
468.434	51.59531
468.645	49.15183
468.856	50.02949
469.067	54.10179
469.278	56.25783
469.489	52.28627
469.7	50.5949
469.911	52.28526
470.122	56.2965
470.333	63.862
470.543	68.05344
470.754	69.28611
470.965	63.47979
471.176	60.52192
471.387	58.24157
471.598	58.6361
471.808	66.75524
472.019	66.26307
472.23	65.21768
472.441	60.81328
472.651	62.54575
472.862	70.99691
473.073	70.96505
473.283	70.17831
473.494	61.40123
473.705	60.61649
473.915	58.55643
474.126	60.37197
474.337	59.46478
474.547	61.55477
474.758	65.33558
474.968	67.02143
475.179	68.34784
475.389	71.48941
475.6	68.09935
475.81	72.93079
476.021	72.6276
476.231	75.17524
476.442	74.94233
476.652	72.23459
476.863	71.22965
477.073	66.02115
477.284	69.92302
477.494	76.71559
477.704	77.88831
477.915	69.78603
478.125	67.68123
478.335	66.73183
478.546	71.84409
478.756	65.58147
478.966	68.38949
479.177	68.2238
479.387	74.05912
479.597	74.19132
479.807	75.10776
480.018	71.87988
480.228	71.0649
480.438	69.30314
480.648	73.55429
480.858	71.98225
481.068	70.27752
481.279	72.56138
481.489	84.86615
481.699	90.04155
481.909	94.69125
482.119	90.452
482.329	99.83797
482.539	106.59609
482.749	110.52486
482.959	117.45463
483.169	121.77062
483.379	132.65199
483.589	137.48557
483.799	149.18388
484.009	163.05433
484.219	173.63377
484.429	181.0968
484.639	185.34874
484.849	186.38139
485.059	183.18055
485.268	180.94427
485.478	183.09842
485.688	185.23119
485.898	189.69426
486.108	198.52244
486.317	217.73114
486.527	236.36822
486.737	254.59278
486.947	259.49561
487.156	272.91729
487.366	270.69743
487.576	283.10494
487.785	287.43463
487.995	294.15644
488.205	294.51989
488.414	293.38057
488.624	305.2063
488.834	313.73172
489.043	313.70991
489.253	310.66287
489.462	309.81663
489.672	313.65433
489.882	313.02858
490.091	308.37201
490.301	311.68009
490.51	312.44069
490.72	313.84196
490.929	311.78246
491.138	305.14603
491.348	301.4883
491.557	292.3041
491.767	291.69119
491.976	287.15617
492.185	273.37581
492.395	267.36067
492.604	261.31968
492.813	259.88901
493.023	254.50061
493.232	246.90019
493.441	247.41021
493.651	244.66381
493.86	244.01381
494.069	239.81603
494.278	234.74601
494.488	229.51987
494.697	221.68112
494.906	212.68066
495.115	203.14061
495.324	199.11544
495.533	188.72506
495.743	182.81448
495.952	177.00263
496.161	175.70025
496.37	171.5475
496.579	166.94656
496.788	162.23349
496.997	154.88658
497.206	141.59879
497.415	133.3085
497.624	130.89222
497.833	126.92554
498.042	119.60531
498.251	105.25613
498.46	102.99251
498.669	104.13282
498.878	106.97529
499.087	106.75872
499.296	105.78493
499.504	99.80047
499.713	101.18391
499.922	100.86149
500.131	98.21272
500.34	91.53904
500.549	87.50917
500.757	89.47929
500.966	90.20587
501.175	94.12679
501.384	98.14401
501.592	105.62311
501.801	106.37314
502.01	102.6408
502.218	101.18622
502.427	101.71353
502.636	106.66443
502.844	104.25285
503.053	100.10046
503.262	99.57426
503.47	103.04743
503.679	103.51322
503.887	100.80998
504.096	101.89311
504.304	103.66991
504.513	105.35922
504.721	95.393
504.93	97.17629
505.138	94.89745
505.347	97.87265
505.555	92.79536
505.764	95.5962
505.972	98.581
506.18	98.68802
506.389	96.07497
506.597	94.55384
506.806	99.70961
507.014	106.98652
507.222	105.49321
507.431	99.74271
507.639	94.40047
507.847	92.07965
508.055	96.25392
508.264	101.64402
508.472	108.33559
508.68	105.2174
508.888	99.23647
509.096	97.12411
509.305	99.71797
509.513	103.50049
509.721	100.6003
509.929	101.09028
510.137	98.18628
510.345	103.05037
510.553	105.41709
510.762	105.55253
510.97	107.82209
511.178	105.41671
511.386	109.89067
511.594	101.17261
511.802	97.25885
512.01	98.57338
512.218	106.05484
512.426	103.29124
512.634	100.94559
512.842	100.74987
513.049	109.1534
513.257	111.05101
513.465	107.07914
513.673	102.36713
513.881	104.57854
514.089	105.39649
514.297	104.64522
514.504	97.36877
514.712	89.90156
514.92	91.16276
515.128	89.67002
515.336	97.2312
515.543	103.11127
515.751	108.76973
515.959	111.96342
516.166	114.58138
516.374	117.50356
516.582	115.33865
516.789	116.73014
516.997	116.13155
517.205	121.27698
517.412	116.91128
517.62	125.65492
517.827	123.23977
518.035	130.80423
518.243	125.18094
518.45	128.20602
518.658	131.83545
518.865	146.36394
519.073	153.80385
519.28	159.3659
519.488	160.24814
519.695	171.44011
519.902	176.51995
520.11	185.42641
520.317	194.02257
520.525	204.72444
520.732	213.11739
520.939	227.32288
521.147	238.61578
521.354	246.64264
521.561	249.05197
521.769	251.98237
521.976	253.43536
522.183	249.81962
522.391	252.95258
522.598	258.83529
522.805	266.16772
523.012	260.63812
523.219	259.90701
523.427	252.72327
523.634	256.26526
523.841	248.44828
524.048	251.86092
524.255	250.23018
524.462	247.10888
524.669	243.24797
524.877	244.80927
525.084	246.95627
525.291	242.79194
525.498	234.34212
525.705	236.3335
525.912	238.43353
526.119	234.1374
526.326	222.22553
526.533	219.48685
526.74	220.6088
526.947	220.79788
527.153	217.285
527.36	207.40692
527.567	212.05287
527.774	201.12184
527.981	198.21345
528.188	181.47835
528.395	179.61383
528.602	173.90515
528.808	170.11581
529.015	165.30702
529.222	148.72846
529.429	138.44146
529.635	122.25037
529.842	125.03796
530.049	119.08802
530.256	122.61471
530.462	114.01534
530.669	112.54606
530.876	101.04095
531.082	99.92751
531.289	96.04943
531.495	99.60838
531.702	97.8547
531.909	98.46323
532.115	94.73112
532.322	96.81342
532.528	98.30616
532.735	95.52555
532.941	90.72008
533.148	88.29538
533.354	93.90578
533.561	96.38066
533.767	91.92164
533.974	90.28093
534.18	89.26016
534.387	91.35137
534.593	85.31872
534.799	86.62486
535.006	88.50359
535.212	97.38673
535.418	97.63341
535.625	94.96742
535.831	89.08732
536.037	88.7726
536.244	87.88262
536.45	89.11894
536.656	89.41637
536.862	92.00291
537.068	87.64185
537.275	86.30615
537.481	82.62017
537.687	87.86149
537.893	89.29724
538.099	90.99168
538.305	94.04577
538.512	95.93652
538.718	96.05538
538.924	91.01463
539.13	87.99348
539.336	90.01979
539.542	90.24009
539.748	89.78418
539.954	92.56482
540.16	96.73299
540.366	94.24527
540.572	93.03343
540.778	91.50233
540.984	98.45367
541.19	99.23206
541.396	95.61754
541.602	88.11636
541.807	86.75036
542.013	92.09146
542.219	96.22046
542.425	92.0513
542.631	89.45169
542.837	92.53301
543.042	98.85356
543.248	99.11342
543.454	98.21251
543.66	92.35283
543.865	89.50095
544.071	87.33453
544.277	90.75921
544.483	94.61677
544.688	93.41078
544.894	95.28876
545.1	92.13889
545.305	91.60883
545.511	82.8547
545.716	85.67978
545.922	80.38436
546.128	82.76658
546.333	80.04036
546.539	86.80856
546.744	86.66823
546.95	84.94107
547.155	86.30188
547.361	84.2747
547.566	85.1899
547.772	74.77958
547.977	74.96058
548.182	74.6273
548.388	81.27131
548.593	84.74288
548.799	88.36224
549.004	84.68439
549.209	78.11654
549.415	71.83346
549.62	78.12348
549.825	80.91906
550.031	86.29545
550.236	83.94524
550.441	87.53958
550.646	84.08579
550.852	82.52775
551.057	82.42355
551.262	82.70352
551.467	83.15672
551.672	72.40863
551.878	64.74852
552.083	61.23606
552.288	61.95413
552.493	62.75845
552.698	65.9445
552.903	74.83625
553.108	73.03844
553.313	78.74217
553.518	80.92316
553.723	88.09993
553.928	82.20269
554.133	73.99161
554.338	66.89691
554.543	64.6444
554.748	63.76739
554.953	76.62988
555.158	83.14497
555.363	86.8491
555.568	82.7951
555.773	78.16811
555.978	74.52846
556.182	72.62382
556.387	74.66976
556.592	79.22806
556.797	77.84452
557.002	76.14757
557.206	81.13011
557.411	85.44044
557.616	90.46306
557.821	87.60089
558.025	87.80574
558.23	87.35389
558.435	89.71125
558.64	92.15804
558.844	86.21785
559.049	86.75041
559.253	86.94203
559.458	92.21285
559.663	96.39153
559.867	98.1768
560.072	103.43676
560.276	106.55465
560.481	112.85191
560.685	122.02742
560.89	128.74365
561.094	137.84065
561.299	142.77164
561.503	154.15962
561.708	157.0672
561.912	166.91652
562.117	167.43023
562.321	173.32887
562.525	176.44928
562.73	175.86781
562.934	177.18585
563.139	177.04492
563.343	187.88376
563.547	185.79296
563.752	189.28566
563.956	182.4077
564.16	187.12419
564.364	185.96972
564.569	189.13445
564.773	187.08494
564.977	181.7027
565.181	180.33519
565.385	186.62776
565.59	187.30853
565.794	188.34039
565.998	174.15313
566.202	175.7075
566.406	172.04532
566.61	175.49745
566.814	173.62583
567.018	180.33579
567.222	186.04042
567.426	183.15064
567.63	171.88745
567.834	165.88269
568.038	169.50452
568.242	174.94218
568.446	179.62474
568.65	170.58006
568.854	162.20301
569.058	155.08342
569.262	156.78278
569.466	151.55465
569.67	145.10251
569.874	139.87764
570.078	138.76388
570.281	132.28123
570.485	128.6015
570.689	128.10378
570.893	128.76271
571.097	122.89586
571.3	122.41033
571.504	118.72106
571.708	116.84445
571.912	109.50246
572.115	109.87059
572.319	109.77423
572.523	109.76826
572.726	106.81313
572.93	95.8329
573.133	87.50461
573.337	83.31096
573.541	90.87513
573.744	94.10168
573.948	97.03132
574.151	90.81244
574.355	86.21979
574.558	89.60743
574.762	89.86544
574.965	99.02135
575.169	96.73075
575.372	96.83829
575.576	90.78458
575.779	84.02187
575.983	88.56908
576.186	81.79503
576.389	87.39839
576.593	88.03719
576.796	93.79564
577	97.92206
577.203	89.41745
577.406	87.98946
577.609	80.76959
577.813	94.88124
578.016	94.00758
578.219	94.72809
578.423	83.15138
578.626	82.59518
578.829	79.69781
579.032	81.80945
579.235	82.68258
579.438	86.88319
579.642	84.4151
579.845	86.88433
580.048	85.36905
580.251	90.86058
580.454	94.21372
580.657	96.31791
580.86	97.30452
581.063	99.49256
581.266	98.67335
581.469	95.43465
581.672	91.56918
581.875	86.60877
582.078	86.97588
582.281	93.40299
582.484	97.56358
582.687	100.23206
582.89	93.73092
583.093	101.81721
583.296	105.13703
583.499	106.01821
583.702	102.43339
583.904	109.30347
584.107	112.64981
584.31	107.57306
584.513	96.40244
584.716	91.2315
584.918	99.63017
585.121	101.34893
585.324	107.55489
585.527	94.7339
585.729	100.41839
585.932	99.12666
586.135	109.9552
586.337	111.96325
586.54	111.07038
586.743	108.14064
586.945	99.93199
587.148	91.39345
587.35	91.42735
587.553	90.02003
587.755	99.16393
587.958	98.97961
588.161	104.32689
588.363	100.42117
588.566	106.48008
588.768	103.10613
588.971	103.84881
589.173	89.42562
589.375	89.4745
589.578	92.55544
589.78	99.69918
589.983	99.14613
590.185	94.86743
590.387	95.78762
590.59	98.00491
590.792	97.18933
590.994	98.68975
591.197	97.48671
591.399	97.77151
591.601	92.34333
591.803	86.85114
592.006	83.40594
592.208	82.03683
592.41	90.7644
592.612	96.7235
592.815	102.09316
593.017	97.8234
593.219	91.93099
593.421	90.94915
593.623	88.52754
593.825	91.70637
594.027	88.17178
594.229	84.0186
594.432	85.72137
594.634	87.4039
594.836	87.34209
595.038	95.66617
595.24	102.39931
595.442	105.28323
595.644	95.79446
595.846	85.24141
596.048	91.50982
596.249	93.77955
596.451	100.65668
596.653	98.58398
596.855	97.35564
597.057	103.32778
597.259	99.01454
597.461	99.24694
597.663	95.97159
597.864	99.16259
598.066	98.92414
598.268	96.62518
598.47	97.47351
598.671	98.77723
598.873	95.415
599.075	96.49729
599.277	93.64156
599.478	90.6147
599.68	93.91854
599.882	102.30182
600.083	111.86006
600.285	104.99163
600.487	98.38982
600.688	92.67825
600.89	96.26627
601.091	96.39942
601.293	98.87651
601.494	99.94618
601.696	102.80035
601.898	105.88836
602.099	105.84971
602.301	104.25807
602.502	98.52217
602.703	96.9653
602.905	99.03058
603.106	100.82118
603.308	100.65904
603.509	102.15874
603.711	104.47677
603.912	111.61025
604.113	110.22465
604.315	115.99149
604.516	119.05812
604.717	122.73833
604.919	117.61576
605.12	117.29571
605.321	118.51981
605.522	117.49766
605.724	114.83532
605.925	111.37197
606.126	117.18373
606.327	123.1528
606.528	126.33568
606.729	131.26256
606.931	134.07104
607.132	141.50219
607.333	141.72759
607.534	140.20261
607.735	141.00483
607.936	145.00508
608.137	148.33893
608.338	153.29813
608.539	153.57586
608.74	153.32858
608.941	149.84418
609.142	154.97153
609.343	160.52984
609.544	162.71882
609.745	155.75334
609.946	153.42098
610.147	157.50903
610.348	162.98537
610.549	168.04588
610.75	170.07591
610.95	171.89597
611.151	167.50874
611.352	163.35759
611.553	166.7119
611.754	165.60269
611.954	159.57034
612.155	147.5607
612.356	145.18114
612.557	148.89949
612.757	154.05572
612.958	155.03269
613.159	154.95222
613.359	154.06278
613.56	146.54306
613.761	148.3419
613.961	147.58026
614.162	154.81177
614.362	150.8906
614.563	152.13909
614.764	144.65563
614.964	139.48026
615.165	129.7663
615.365	128.91096
615.566	129.23182
615.766	128.26119
615.967	126.37974
616.167	124.21192
616.368	126.69454
616.568	126.6596
616.768	123.18453
616.969	118.29008
617.169	110.39286
617.37	108.43738
617.57	106.9325
617.77	108.53287
617.971	105.57797
618.171	100.13067
618.371	101.06989
618.571	107.16482
618.772	108.47199
618.972	104.87092
619.172	99.03675
619.372	95.73786
619.573	96.28576
619.773	92.1362
619.973	90.33628
620.173	82.17913
620.373	81.87202
620.573	80.69886
620.774	86.51749
620.974	80.36975
621.174	84.72739
621.374	82.69206
621.574	83.89418
621.774	86.05712
621.974	79.15165
622.174	80.17146
622.374	69.49041
622.574	73.20888
622.774	74.60116
622.974	77.3747
623.174	80.84567
623.374	77.63322
623.574	78.44278
623.774	75.13356
623.973	79.892
624.173	75.59056
624.373	66.7235
624.573	62.84544
624.773	63.82534
624.973	70.40748
625.172	69.88675
625.372	77.05136
625.572	72.59227
625.772	66.17996
625.971	59.37622
626.171	61.42372
626.371	64.80856
626.57	63.74201
626.77	61.92252
626.97	59.48692
627.169	56.41777
627.369	57.43968
627.569	62.25356
627.768	62.6493
627.968	65.6099
628.167	66.64991
628.367	63.52497
628.566	60.35888
628.766	55.73568
628.965	65.72947
629.165	65.922
629.364	70.83714
629.564	71.05566
629.763	65.9806
629.963	63.95982
630.162	66.10602
630.362	72.44887
630.561	74.31125
630.76	68.39703
630.96	70.06692
631.159	69.64126
631.358	65.83218
631.558	63.94298
631.757	65.69539
631.956	66.89398
632.155	64.19022
632.355	61.65138
632.554	65.01175
632.753	70.44851
632.952	63.84234
633.152	61.56137
633.351	59.67329
633.55	70.93436
633.749	77.54203
633.948	71.93826
634.147	66.15602
634.346	58.5703
634.545	61.49978
634.744	64.61962
634.944	67.35794
635.143	70.31493
635.342	76.75546
635.541	74.40583
635.74	76.85922
635.939	62.92548
636.138	59.90043
636.336	55.5681
636.535	61.53562
636.734	59.58177
636.933	53.65813
637.132	51.24263
637.331	56.35606
637.53	64.32664
637.729	58.96324
637.928	60.84
638.126	53.5227
638.325	57.05943
638.524	49.29052
638.723	50.13289
638.921	47.76291
639.12	56.74302
639.319	55.96235
639.518	57.97874
639.716	56.30411
639.915	65.29852
640.114	61.13041
640.312	53.46228
640.511	46.55709
640.71	48.48222
640.908	51.80491
641.107	51.96323
641.305	55.76879
641.504	52.8708
641.702	53.09607
641.901	43.22909
642.099	44.6645
642.298	43.65729
642.496	51.68087
642.695	49.72617
642.893	51.78149
643.092	50.20641
643.29	56.72245
643.489	52.64502
643.687	52.39394
643.885	52.65274
644.084	57.96127
644.282	54.17849
644.48	50.85685
644.679	44.60381
644.877	45.73932
645.075	41.92874
645.274	50.37268
645.472	49.94632
645.67	53.94914
645.868	53.81333
646.067	56.38949
646.265	55.67748
646.463	48.5481
646.661	46.13261
646.859	49.02603
647.057	46.44914
647.256	51.47735
647.454	43.82445
647.652	49.10052
647.85	45.51421
648.048	53.98928
648.246	55.03521
648.444	56.30482
648.642	53.10501
648.84	46.09992
649.038	45.73586
649.236	45.93391
649.434	49.7102
649.632	52.87695
649.83	58.08442
650.028	52.16032
650.226	50.07624
650.423	43.9615
650.621	52.45734
650.819	44.53941
651.017	44.96555
651.215	43.01188
651.413	51.28672
651.61	51.21502
651.808	52.46045
652.006	48.81124
652.204	42.78372
652.401	39.29479
652.599	42.52004
652.797	41.74343
652.995	48.09178
653.192	48.90718
653.39	58.96899
653.588	50.30707
653.785	43.56416
653.983	40.46788
654.18	44.27558
654.378	50.1356
654.576	51.9621
654.773	55.67208
654.971	62.6132
655.168	61.76935
655.366	60.27167
655.563	58.77598
655.761	60.72646
655.958	63.75289
656.156	62.24589
656.353	66.71999
656.55	86.21551
656.748	107.5777
656.945	144.81309
657.143	188.40522
657.34	249.35853
657.537	319.04499
657.735	394.75456
657.932	482.04755
658.129	578.74978
658.326	688.71074
658.524	805.5013
658.721	916.03068
658.918	1015.27716
659.115	1104.87684
659.313	1169.98758
659.51	1225.56518
659.707	1256.08621
659.904	1299.75224
660.101	1323.39046
660.298	1335.19138
660.496	1340.8283
660.693	1332.40912
660.89	1345.26732
661.087	1346.80708
661.284	1358.55596
661.481	1353.23203
661.678	1344.16856
661.875	1331.77225
662.072	1326.94023
662.269	1322.58082
662.466	1324.37764
662.663	1320.60439
662.86	1307.18377
663.057	1294.24334
663.254	1280.13475
663.45	1267.67246
663.647	1246.46876
663.844	1222.31962
664.041	1209.20199
664.238	1199.41809
664.435	1200.46696
664.631	1198.55837
664.828	1189.74808
665.025	1174.6479
665.222	1156.36474
665.419	1133.6892
665.615	1109.30217
665.812	1077.13816
666.009	1038.07943
666.205	983.51745
666.402	921.81371
666.599	875.09614
666.795	838.28869
666.992	821.05316
667.188	799.81624
667.385	776.99057
667.582	746.05308
667.778	722.91279
667.975	700.29106
668.171	671.52549
668.368	634.64833
668.564	598.65155
668.761	554.87056
668.957	509.2984
669.154	452.70244
669.35	395.32886
669.547	342.47977
669.743	286.14846
669.939	222.48524
670.136	165.09976
670.332	119.81061
670.528	97.37349
670.725	77.75854
670.921	61.33732
671.117	58.30589
671.314	51.70621
671.51	49.74947
671.706	42.9475
671.902	43.0698
672.099	48.96723
672.295	46.36395
672.491	45.22958
672.687	42.8122
672.883	44.18158
673.08	42.00277
673.276	38.97791
673.472	43.33557
673.668	49.39583
673.864	46.23918
674.06	42.76258
674.256	36.69737
674.452	41.41669
674.648	39.98106
674.844	41.11838
675.04	45.61667
675.236	48.37543
675.432	50.55265
675.628	49.31285
675.824	44.69792
676.02	51.68194
676.216	47.3825
676.412	54.4071
676.608	47.94997
676.804	48.04951
676.999	51.44356
677.195	50.85965
677.391	51.99234
677.587	52.28745
677.783	52.68275
677.978	49.29575
678.174	47.11001
678.37	52.83517
678.566	54.65878
678.761	49.96701
678.957	44.13353
679.153	45.67627
679.348	44.37671
679.544	47.73898
679.74	47.27138
679.935	48.47927
680.131	48.93727
680.327	49.92418
680.522	55.29594
680.718	44.54383
680.913	42.91403
681.109	38.84493
681.304	46.40304
681.5	46.46251
681.695	46.364
681.891	44.41404
682.086	51.06538
682.282	50.0452
682.477	49.77424
682.672	38.2742
682.868	35.68309
683.063	39.43491
683.259	44.34935
683.454	47.4782
683.649	45.03955
683.845	44.68762
684.04	41.06627
684.235	41.42664
684.43	40.7682
684.626	41.1965
684.821	36.75651
685.016	37.87989
685.211	41.32372
685.407	36.8972
685.602	36.46006
685.797	30.21161
685.992	32.20285
686.187	30.25261
686.382	33.05582
686.577	31.91505
686.773	33.08656
686.968	29.33942
687.163	37.509
687.358	38.78444
687.553	46.40549
687.748	43.57742
687.943	38.81475
688.138	32.56017
688.333	25.87977
688.528	26.10794
688.723	26.04655
688.918	30.08858
689.112	33.60745
689.307	36.73682
689.502	38.13626
689.697	35.79225
689.892	37.80619
690.087	37.15686
690.282	30.76973
690.476	26.05016
690.671	27.05655
690.866	32.76286
691.061	37.13089
691.255	30.84454
691.45	29.6343
691.645	27.35047
691.84	28.13501
692.034	28.00517
692.229	24.77681
692.424	24.15537
692.618	26.07587
692.813	25.91174
693.007	22.94637
693.202	18.9414
693.397	20.15036
693.591	27.54573
693.786	31.32231
693.98	26.37152
694.175	24.45228
694.369	24.84699
694.564	26.5717
694.758	29.40241
694.953	24.1569
695.147	26.89717
695.342	19.70063
695.536	21.23206
695.73	21.5239
695.925	33.248
696.119	34.29098
696.313	29.50135
696.508	21.32671
696.702	28.00893
696.896	34.06639
697.091	31.75743
697.285	28.92072
697.479	23.41912
697.673	22.27486
697.868	22.70052
698.062	23.44855
698.256	24.52662
698.45	20.15543
698.644	28.88277
698.839	34.4187
699.033	36.24445
699.227	32.69549
699.421	32.66408
699.615	25.85443
699.809	22.17298
700.003	20.4471
700.197	24.25885
700.391	26.08419
700.585	20.60869
700.779	22.89076
700.973	26.0157
701.167	25.52766
701.361	26.89659
701.555	27.5505
701.749	28.75622
701.943	26.96303
702.137	19.92607
702.331	25.26484
702.525	27.32057
702.718	30.31978
702.912	28.46591
703.106	26.37842
703.3	26.38129
703.494	26.21913
703.687	33.38944
703.881	28.75747
704.075	29.08617
704.269	21.49351
704.462	27.22845
704.656	25.98736
704.85	26.57205
705.043	28.39795
705.237	31.72059
705.431	33.51178
705.624	32.46694
705.818	28.16508
706.012	29.11138
706.205	23.31234
706.399	24.0975
706.592	23.21107
706.786	29.14457
706.979	36.0205
707.173	33.97401
707.366	36.02153
707.56	32.86007
707.753	32.5336
707.947	28.66137
708.14	28.16906
708.333	31.13225
708.527	34.87468
708.72	35.88068
708.914	37.51139
709.107	29.20391
709.3	31.68833
709.494	25.23611
709.687	27.81179
709.88	24.03037
710.073	31.29355
710.267	36.53651
710.46	39.40242
710.653	36.18011
710.846	33.9308
711.04	32.76335
711.233	32.30869
711.426	33.4171
711.619	32.72571
711.812	37.1267
712.005	39.24328
712.198	35.82574
712.391	32.39916
712.585	25.52757
712.778	24.41895
712.971	21.52006
713.164	24.42121
713.357	23.11677
713.55	25.0084
713.743	29.14291
713.936	28.55608
714.129	30.18451
714.322	27.71079
714.514	35.6305
714.707	33.5785
714.9	36.31496
715.093	29.66858
715.286	30.84156
715.479	25.59611
715.672	28.75507
715.864	28.29598
716.057	26.99209
716.25	24.77454
716.443	26.95852
716.636	29.76493
716.828	40.94006
717.021	38.33555
717.214	33.05316
717.406	29.53524
717.599	34.65326
717.792	43.67868
717.984	41.33459
718.177	40.15937
718.37	39.76609
718.562	38.72216
718.755	36.07883
718.947	33.47413
719.14	32.13692
719.333	32.49622
719.525	31.12937
719.718	32.88713
719.91	33.37863
720.103	37.96353
720.295	36.20621
720.487	34.37968
720.68	30.4767
720.872	32.16896
721.065	35.55258
721.257	35.90847
721.449	35.68696
721.642	37.48488
721.834	36.38004
722.026	35.17328
722.219	33.25252
722.411	33.9337
722.603	36.24385
722.796	35.59088
722.988	36.7362
723.18	36.99751
723.372	32.37173
723.565	28.52499
723.757	28.23347
723.949	31.84734
724.141	34.65207
724.333	31.94422
724.525	34.1316
724.717	34.42353
724.91	31.95079
725.102	27.38264
725.294	28.10079
725.486	30.28287
725.678	32.59695
725.87	35.09589
726.062	40.46428
726.254	41.44239
726.446	37.60348
726.638	26.63047
726.83	27.83935
727.022	28.00022
727.213	34.28854
727.405	33.27512
727.597	33.07697
727.789	36.46688
727.981	34.57681
728.173	41.84534
728.365	39.82355
728.556	37.9323
728.748	34.34779
728.94	34.73909
729.132	37.38318
729.324	34.97688
729.515	39.73795
729.707	42.07519
729.899	49.366
730.09	44.08344
730.282	38.09159
730.474	30.31168
730.665	32.10201
730.857	36.73351
731.049	41.97883
731.24	42.85918
731.432	43.31697
731.623	39.11251
731.815	37.45389
732.006	35.62516
732.198	39.88579
732.389	38.87066
732.581	39.95063
732.772	39.92184
732.964	38.3938
733.155	40.50559
733.347	36.30756
733.538	37.22292
733.729	41.20291
733.921	40.87665
734.112	40.42049
734.304	34.42175
734.495	31.10063
734.686	33.44038
734.877	29.27548
735.069	28.26156
735.26	24.322
735.451	21.711
735.643	25.49464
735.834	26.7669
736.025	31.48844
736.216	32.03787
736.407	35.58702
736.599	43.73666
736.79	41.45969
736.981	35.95499
737.172	32.07775
737.363	32.49798
737.554	36.92694
737.745	34.94234
737.936	33.67283
738.127	35.59528
738.318	24.97051
738.509	26.11019
738.7	20.05515
738.891	28.78776
739.082	30.90448
739.273	31.78111
739.464	33.50814
739.655	31.06581
739.846	26.99371
740.037	25.10385
740.228	21.52154
740.419	26.18002
740.609	23.34305
740.8	30.11979
740.991	23.70173
741.182	21.48476
741.373	18.35969
741.563	23.37722
741.754	26.63814
741.945	28.62642
742.136	29.83282
742.326	31.16953
742.517	32.79536
742.708	32.75908
742.898	37.41388
743.089	31.15657
743.28	33.0068
743.47	32.286
743.661	36.16936
743.851	41.03569
744.042	33.71364
744.233	34.65257
744.423	25.65953
744.614	24.64662
744.804	26.15038
744.995	25.5296
745.185	31.36677
745.376	23.57565
745.566	21.7212
745.756	21.25578
745.947	29.30511
746.137	37.64365
746.328	29.50451
746.518	28.39248
746.708	24.28961
746.899	26.14591
747.089	26.44733
747.279	24.65191
747.47	32.37891
747.66	35.17004
747.85	33.08471
748.04	28.41821
748.231	22.8226
748.421	28.81788
748.611	34.46081
748.801	33.38497
748.991	28.13971
749.182	20.31333
749.372	17.41123
749.562	20.54346
749.752	22.63017
749.942	20.38224
750.132	17.08656
750.322	14.74214
750.512	16.66404
750.702	19.07584
750.892	21.71549
751.082	29.86275
751.272	32.2098
751.462	36.89778
751.652	35.92309
751.842	37.48516
752.032	33.80752
752.222	30.77255
752.412	27.28357
752.602	28.09778
752.792	29.24141
752.981	29.99014
753.171	29.82959
753.361	32.26986
753.551	31.16725
753.741	30.80437
753.93	32.76184
754.12	37.80603
754.31	39.5039
754.5	36.53644
754.689	34.4262
754.879	32.66337
755.069	33.02551
755.258	34.35642
755.448	32.23984
755.638	36.17982
755.827	27.05996
756.017	29.47091
756.206	24.71894
756.396	34.32838
756.586	35.99316
756.775	36.4729
756.965	34.87248
757.154	30.95906
757.344	30.17913
757.533	31.97478
757.723	29.59697
757.912	27.57829
758.101	26.73486
758.291	23.44475
758.48	25.00946
758.67	18.36253
758.859	28.78587
759.048	29.69654
759.238	32.00914
759.427	22.65949
759.616	21.68105
759.806	22.7541
759.995	34.55262
760.184	31.9494
760.373	27.71588
760.563	23.14989
760.752	24.45449
760.941	24.45458
761.13	19.70079
761.319	14.42028
761.509	18.82017
761.698	22.04346
761.887	27.09683
762.076	26.11536
762.265	25.20792
762.454	23.44423
762.643	25.01077
762.832	30.77361
763.021	33.77255
763.21	32.59554
763.399	31.12961
763.588	32.98652
763.777	28.75417
763.966	27.35261
764.155	22.59432
764.344	29.49889
764.533	28.06647
764.722	26.20857
764.911	25.10497
765.1	20.18448
765.288	26.082
765.477	23.01546
765.666	29.86039
765.855	30.51216
766.044	35.66407
766.232	37.61662
766.421	34.42464
766.61	35.8559
766.799	33.67143
766.987	36.96164
767.176	34.48721
767.365	28.23305
767.553	27.15159
767.742	22.58813
767.931	32.62344
768.119	24.35467
768.308	32.37142
768.497	29.14183
768.685	35.78593
768.874	30.70221
769.062	18.32432
769.251	17.67563
769.439	12.07268
769.628	24.09562
769.816	22.43238
770.005	22.62649
770.193	20.70773
770.382	19.37435
770.57	22.08087
770.758	22.4083
770.947	26.47646
771.135	24.52034
771.323	25.49427
771.512	24.23144
771.7	22.01465
771.888	18.85217
772.077	19.46832
772.265	25.10609
772.453	21.09938
772.642	19.14386
772.83	18.00291
773.018	17.93754
773.206	17.77675
773.394	18.68929
773.583	24.91655
773.771	24.91298
773.959	26.21847
774.147	22.75927
774.335	21.71654
774.523	21.06302
774.711	25.49807
774.899	23.51076
775.087	23.21879
775.275	17.83997
775.463	26.05785
775.651	25.63413
775.839	26.90697
776.027	23.93712
776.215	24.82053
776.403	24.6214
776.591	20.32067
776.779	14.61396
776.967	15.07425
777.155	14.19258
777.343	22.21486
777.531	19.67087
777.718	23.94251
777.906	19.01488
778.094	22.43809
778.282	19.40307
778.47	19.33762
778.657	25.65661
778.845	32.10895
779.033	38.0687
779.22	29.01114
779.408	31.25832
779.596	30.31658
779.783	41.87422
779.971	41.48408
780.159	42.29578
780.346	40.28585
780.534	42.72401
780.722	51.09115
780.909	51.80528
781.097	51.41501
781.284	45.42371
781.472	45.16234
781.659	53.04824
781.847	56.53008
782.034	60.45583
782.222	55.40543
782.409	58.62478
782.597	54.39864
782.784	54.05943
782.971	54.19888
783.159	58.27005
783.346	53.59567
783.533	51.60377
783.721	50.49667
783.908	51.8903
784.095	48.89843
784.283	53.03555
784.47	58.83494
784.657	58.76538
784.844	56.62114
785.032	54.1811
785.219	51.64538
785.406	51.61464
785.593	49.98374
785.78	57.83431
785.968	50.8304
786.155	51.15356
786.342	41.73809
786.529	43.52761
786.716	45.19259
786.903	44.86647
787.09	45.23323
787.277	42.82105
787.464	43.24501
787.651	41.71156
787.838	35.33301
788.025	33.87187
788.212	32.76059
788.399	34.71102
788.586	36.01647
788.773	35.13917
788.96	40.16703
789.147	37.49243
789.334	36.48235
789.521	27.28627
789.707	29.57027
789.894	26.96442
790.081	31.33109
790.268	27.74376
790.455	27.25264
790.641	21.06204
790.828	18.39067
791.015	15.94942
791.202	15.10255
791.388	19.79783
791.575	18.33165
791.762	18.78789
791.948	14.38545
792.135	14.9052
792.322	15.55467
792.508	17.05723
792.695	19.92617
792.881	15.5305
793.068	10.96801
793.254	12.43481
793.441	13.24913
793.627	14.51986
793.814	11.91411
794	12.01187
794.187	11.3919
794.373	16.56747
794.56	17.05623
794.746	15.52467
794.933	11.84757
795.119	11.81438
795.305	20.81382
795.492	18.36697
795.678	18.30214
795.864	15.62371
796.051	19.07925
796.237	20.02484
796.423	13.01987
796.61	14.06354
796.796	16.80241
796.982	20.15768
797.168	9.89092
797.355	9.20527
797.541	14.97143
797.727	16.01424
797.913	16.306
798.099	10.96561
798.285	15.43042
798.471	11.91033
798.658	12.85477
798.844	10.18282
799.03	10.86918
799.216	6.07775
799.402	10.86631
799.588	12.6918
799.774	21.09593
799.96	22.95431
800.146	22.98586
800.332	15.49386
800.518	15.62212
800.704	13.17829
800.89	22.17656
801.075	13.47838
801.261	20.02924
801.447	9.36989
801.633	14.25964
801.819	11.39197
802.005	13.47802
802.19	17.54932
802.376	13.70387
802.562	22.27211
802.748	17.32021
802.934	20.84047
803.119	14.5532
803.305	18.0046
803.491	16.73505
803.676	16.18122
803.862	9.56801
804.048	12.10557
804.233	5.13086
804.419	10.54166
804.605	3.60197
804.79	12.59684
804.976	6.59934
805.161	11.4887
805.347	6.76358
805.532	10.44662
805.718	11.03141
805.903	16.08278
806.089	18.62415
806.274	17.64799
806.46	12.59658
806.645	6.95885
806.831	8.84999
807.016	14.06276
807.201	20.28834
807.387	14.02944
807.572	11.13099
807.757	6.04622
807.943	12.23976
808.128	13.31417
808.313	13.47647
808.499	10.64071
808.684	14.42198
808.869	17.19144
809.054	17.77837
809.24	6.63253
809.425	7.15671
809.61	4.67904
809.795	5.68905
809.98	6.33871
810.165	-0.86321
810.35	0.14701
810.536	1.93886
810.721	8.35828
810.906	4.18735
811.091	0.99459
811.276	2.98371
811.461	3.17919
811.646	-2.32841
811.831	-7.77239
812.016	1.58205
812.201	5.52543
812.386	8.49167
812.571	1.80907
812.756	5.68824
812.941	0.56992
813.125	1.54748
813.31	-4.90633
813.495	1.0596
813.68	4.22122
813.865	5.52494
814.05	4.48167
814.234	7.64011
814.419	7.50928
814.604	13.14711
814.789	8.68441
814.973	14.38833
815.158	9.69589
815.343	12.63057
815.528	11.78387
815.712	13.64089
815.897	11.13022
816.081	5.84997
816.266	4.18855
816.451	8.32844
816.635	11.88034
816.82	12.82622
817.004	10.67496
817.189	7.80768
817.374	8.36008
817.558	2.32946
817.743	3.95855
817.927	-1.25617
818.111	6.43672
818.296	13.47599
818.48	21.88562
818.665	23.28617
818.849	10.21757
819.034	2.62296
819.218	3.24394
819.402	13.90297
819.587	17.84557
819.771	11.06519
819.955	4.64248
820.14	7.70818
820.324	12.23718
820.508	11.78153
820.692	7.64185
820.877	4.6116
821.061	6.89347
821.245	12.27172
821.429	10.70782
821.613	9.82847
821.798	13.63837
821.982	15.92048
822.166	14.97417
822.35	6.5675
822.534	4.31798
822.718	9.46885
822.902	7.54638
823.086	10.6743
823.27	7.02342
823.454	7.34951
823.638	2.42889
823.822	2.9818
824.006	6.66542
824.19	8.68642
824.374	6.8295
824.558	3.40654
824.742	1.09306
824.926	4.02712
825.11	8.10024
825.294	14.09627
825.477	11.12911
825.661	9.56703
825.845	10.15427
826.029	9.11139
826.213	5.55742
826.396	5.58999
826.58	4.05817
826.764	6.79577
826.948	-0.47211
827.131	3.30907
827.315	-0.04787
827.499	6.6001
827.682	2.68788
827.866	10.41143
828.05	9.98741
828.233	11.03097
828.417	8.16267
828.6	5.13231
828.784	7.7063
828.967	2.36212
829.151	6.27382
829.335	7.44845
829.518	10.18594
829.701	10.77255
829.885	14.22825
830.068	12.43599
830.252	7.87234
830.435	6.04498
830.619	2.94841
830.802	7.15393
830.985	3.30853
831.169	2.33083
831.352	-2.52639
831.535	-0.63632
831.719	8.65313
831.902	14.25807
832.085	16.14475
832.269	11.28814
832.452	5.42238
832.635	4.48198
832.818	9.5017
833.002	15.17113
833.185	11.29215
833.368	14.94428
833.551	8.94895
833.734	9.34018
833.917	-2.85073
834.1	5.26593
834.284	12.4053
834.467	17.78161
834.65	13.2827
834.833	12.13973
835.016	15.78991
835.199	13.2152
835.382	11.52221
835.565	6.11263
835.748	7.83978
835.931	9.33766
836.114	13.96674
836.297	11.26173
836.479	8.48935
836.662	11.45679
836.845	9.53358
837.028	13.21904
837.211	6.92577
837.394	10.60948
837.577	8.26234
837.759	11.55395
837.942	14.7459
838.125	13.2144
838.308	11.52048
838.49	16.63022
838.673	17.57498
838.856	20.8681
839.039	10.77322
839.221	5.42824
839.404	0.83092
839.587	4.5797
839.769	13.05131
839.952	11.29152
840.134	14.42274
840.317	8.29783
840.499	10.77335
840.682	3.5347
840.865	0.99241
841.047	-0.89633
841.23	1.87398
841.412	3.43832
841.595	4.51337
841.777	-1.0935
841.959	6.04381
842.142	4.96838
842.324	10.80262
842.507	1.22046
842.689	2.39378
842.871	-0.83163
843.054	-1.35227
843.236	-0.43944
843.418	5.19924
843.601	9.04503
843.783	5.00407
843.965	3.08141
844.147	8.09842
844.33	9.98845
844.512	6.20677
844.694	5.98115
844.876	7.93582
845.059	16.28126
845.241	8.06764
845.423	3.66845
845.605	-3.63387
845.787	7.02251
845.969	12.52829
846.151	14.28883
846.333	11.48663
846.515	11.38962
846.697	17.38157
846.879	15.91578
847.061	14.77618
847.243	15.85692
847.425	17.97517
847.607	21.52641
847.789	20.38407
847.971	21.91285
848.153	25.3684
848.335	25.17361
848.517	26.44596
848.699	25.85799
848.881	31.81908
849.062	27.9746
849.244	28.32953
849.426	21.61793
849.608	30.24893
849.789	27.97006
849.971	33.86264
850.153	25.71971
850.335	27.67317
850.516	22.79241
850.698	29.01539
850.88	23.96756
851.061	28.74982
851.243	23.24288
851.425	25.94863
851.606	25.43487
851.788	25.24014
851.969	29.31266
852.151	25.81994
852.333	22.82233
852.514	20.24516
852.696	21.45437
852.877	25.98306
853.059	32.88495
853.24	28.67684
853.422	31.11996
853.603	24.80407
853.784	29.11106
853.966	27.87203
854.147	25.49953
854.329	26.76434
854.51	30.67924
854.691	30.34894
854.873	26.44477
855.054	28.65481
855.235	31.98171
855.416	33.67374
855.598	25.0729
855.779	18.94497
855.96	11.5504
856.141	14.81239
856.323	19.24173
856.504	24.03264
856.685	17.02496
856.866	11.09665
857.047	12.26992
857.228	5.94762
857.409	8.29442
857.591	2.72174
857.772	9.89195
857.953	8.52347
858.134	11.06465
858.315	6.24123
858.496	13.83588
858.677	12.46717
858.858	14.09631
859.039	7.0878
859.22	11.75147
859.401	10.9691
859.582	7.64535
859.762	4.35089
859.943	1.4487
860.124	7.70703
860.305	3.69831
860.486	10.02176
860.667	7.61061
860.848	6.89356
861.028	9.43696
861.209	11.55527
861.39	10.44689
861.571	3.89568
861.751	2.16591
861.932	5.29489
862.113	12.40339
862.293	10.87248
862.474	14.426
862.655	8.78413
862.835	9.76351
863.016	6.99243
863.197	3.73269
863.377	2.13522
863.558	-1.41736
863.738	3.01528
863.919	5.75254
864.099	10.3815
864.28	11.68448
864.46	9.17438
864.641	5.00162
864.821	5.45903
865.002	5.85081
865.182	4.51438
865.363	-0.1793
865.543	1.87432
865.723	4.51489
865.904	6.47057
866.084	4.83967
866.264	4.28501
866.445	5.42633
866.625	5.06694
866.805	4.83895
866.986	7.08579
867.166	8.87734
867.346	9.72502
867.526	4.51178
867.707	1.80822
867.887	4.1545
868.067	7.93456
868.247	7.67454
868.427	8.55408
868.607	6.11049
868.788	6.04531
868.968	-0.79813
869.148	-2.0038
869.328	-2.94872
869.508	0.83134
869.688	2.13476
869.868	6.92588
870.048	7.70821
870.228	7.0563
870.408	7.15607
870.588	5.39616
870.768	11.06697
870.948	8.19636
871.128	2.29443
871.307	1.05613
871.487	-7.22023
871.667	3.08255
871.847	4.74594
872.027	6.27564
872.207	8.16642
872.387	1.71183
872.566	7.7088
872.746	3.86167
872.926	3.01444
873.106	8.13228
873.285	11.91366
873.465	18.85554
873.645	14.71726
873.824	11.23047
874.004	7.12454
874.184	3.76608
874.363	3.34092
874.543	5.19852
874.723	11.81481
874.902	6.95812
875.082	4.93762
875.261	0.60221
875.441	2.49318
875.62	3.53564
875.8	-2.88562
875.979	-1.25614
876.159	-0.66962
876.338	11.61641
876.518	12.62691
876.697	8.94424
876.876	5.49273
877.056	4.18894
877.235	5.59042
877.415	0.04899
877.594	-0.01607
877.773	0.1792
877.953	2.4609
878.132	3.86246
878.311	-2.527
878.49	-1.32183
878.67	-4.77642
878.849	3.21121
879.028	4.02683
879.207	9.40425
879.387	10.87052
879.566	13.54204
879.745	10.67383
879.924	7.83779
880.103	2.65644
880.282	1.38537
880.461	4.8427
880.64	6.4062
880.819	9.4384
880.998	7.02382
881.178	7.35067
881.357	12.69295
881.536	10.0205
881.715	10.54247
881.893	5.88487
882.072	13.37889
882.251	15.62835
882.43	15.23641
882.609	12.6648
882.788	5.36296
882.967	3.01602
883.146	2.00579
883.325	10.74089
883.503	11.19725
883.682	7.96957
883.861	5.85165
884.04	5.19953
884.219	7.8076
884.397	2.68995
884.576	5.3622
884.755	5.75367
884.933	10.5121
885.112	13.05587
885.291	12.20714
885.469	9.5676
885.648	4.54724
885.827	9.01534
886.005	11.68638
886.184	12.01231
886.363	9.27401
886.541	8.20015
886.72	14.60397
886.898	19.75223
887.077	18.51282
887.255	15.59709
887.434	4.31917
887.612	5.81911
887.791	5.4926
887.969	13.77352
888.147	10.80695
888.326	8.49227
888.504	5.26377
888.682	8.68679
888.861	8.88252
889.039	7.80667
889.218	12.98913
889.396	16.21575
889.574	13.90153
889.752	2.16712
889.931	-7.54523
890.109	-1.74373
890.287	2.23275
890.465	9.17547
890.643	12.3338
890.822	13.89736
891	14.51563
891.178	14.16253
891.356	10.8713
891.534	10.02558
891.712	4.51508
891.89	8.62302
892.068	13.28204
892.247	18.8232
892.425	16.14949
892.603	8.68632
892.781	7.64213
892.959	2.23256
893.137	2.13474
893.314	-4.25244
893.492	5.7532
893.67	10.08699
893.848	12.30297
894.026	4.21909
894.204	0.37425
894.382	5.91719
894.56	8.3619
894.738	10.02414
894.915	4.90495
895.093	11.48818
895.271	12.17255
895.449	11.74867
895.626	12.79391
895.804	12.56559
895.982	13.70735
896.16	9.73048
896.337	9.01373
896.515	5.94953
896.693	-0.24368
896.87	-0.69969
897.048	-4.54586
897.225	3.69824
897.403	8.39042
897.581	14.06098
897.758	11.97658
897.936	7.87099
898.113	2.00495
898.291	3.11314
898.468	0.50541
898.646	6.27393
898.823	-0.21272
899.001	4.54593
899.178	1.12418
899.356	3.0801
899.533	3.47131
899.71	5.52534
899.888	4.7432
900.065	4.06054
900.242	9.60144
900.42	13.90435
900.597	14.12971
900.774	4.47986
900.952	6.14308
901.129	4.74303
901.306	11.32797
901.483	7.05673
901.661	4.6117
901.838	8.00233
902.015	11.42519
902.192	11.91432
902.369	9.85948
902.546	10.02059
902.723	11.19383
902.901	5.16479
903.078	1.05911
903.255	1.97184
903.432	7.38198
903.609	5.49163
903.786	8.55669
903.963	-0.56861
904.14	4.15743
904.317	2.07035
904.494	6.92648
904.671	12.46964
904.848	10.4489
905.024	11.19858
905.201	4.12371
905.378	4.74292
905.555	4.54733
905.732	4.48235
905.909	-4.64032
906.086	-0.5651
906.262	3.24642
906.439	16.44634
906.616	14.00097
906.793	10.0593
906.969	9.76316
907.146	9.79598
907.323	8.16571
907.5	6.43719
907.676	7.8383
907.853	7.77312
908.03	4.09055
908.206	3.21168
908.383	7.61188
908.559	10.51285
908.736	6.17665
908.912	3.43889
909.089	-2.85074
909.266	-0.89481
909.442	-3.99163
909.619	-0.01611
909.795	5.2954
909.972	2.85078
910.148	5.16537
910.324	-0.01582
910.501	9.66724
910.677	8.75529
910.854	8.07066
911.03	-0.70066
911.206	-1.09378
911.383	-3.31062
911.559	4.47857
911.735	-2.30093
911.912	1.25227
912.088	-2.95043
912.264	3.95958
912.44	4.90508
912.617	3.99238
912.793	3.34079
912.969	-1.06009
913.145	-2.42895
913.321	2.3946
913.498	6.30591
913.674	14.22634
913.85	3.96031
914.026	1.4837
914.202	-3.43798
914.378	-1.48317
914.554	0.17882
914.73	1.18796
914.906	2.88323
915.082	1.54696
915.258	8.16569
915.434	8.91538
915.61	10.18697
915.786	4.44998
915.962	6.86315
916.138	10.05769
916.314	3.99442
916.49	1.67904
916.665	4.28689
916.841	9.24132
917.017	9.24122
917.193	4.61183
917.369	-0.40696
917.545	2.42989
917.72	0.93066
917.896	8.62145
918.072	1.3515
918.247	7.96677
918.423	2.10038
918.599	9.01171
918.775	5.00452
918.95	4.41936
919.126	-2.16523
919.301	2.29685
919.477	6.04428
919.653	12.66056
919.828	10.05471
920.004	11.71457
920.179	15.84375
920.355	12.74807
920.53	10.53412
920.706	4.97054
920.881	5.98035
921.057	8.74942
921.232	12.79221
921.408	14.65159
921.583	11.58893
921.759	-1.05964
921.934	-7.15565
922.109	-2.75687
922.285	7.96852
922.46	16.44293
922.635	12.53334
922.811	5.8826
922.986	3.56816
923.161	3.76351
923.336	5.2642
923.512	2.10275
923.687	-1.05939
923.862	-3.43846
924.037	-5.29594
924.212	-4.08965
924.388	2.46095
924.563	-0.66796
924.738	-2.20031
924.913	-4.67758
925.088	-3.04777
925.263	0.70173
925.438	2.42922
925.613	5.81901
925.788	5.1338
925.963	5.23197
926.138	1.35307
926.313	2.98383
926.488	2.42938
926.663	3.27727
926.838	2.6897
927.013	1.77716
927.188	7.7088
927.363	8.26339
927.538	4.3839
927.713	-1.7116
927.888	2.88482
928.062	7.48083
928.237	10.15417
928.412	3.40601
928.587	4.64496
928.761	1.18966
928.936	6.9595
929.111	1.61358
929.286	9.24108
929.46	2.33026
929.635	6.95948
929.81	1.18993
929.984	-0.30946
930.159	4.18912
930.334	4.18904
930.508	8.00271
930.683	3.47162
930.857	11.88169
931.032	9.56736
931.206	10.18616
931.381	-0.37619
931.556	-0.9954
931.73	3.24528
931.904	6.99447
932.079	3.27955
932.253	-5.88332
932.428	-3.8296
932.602	1.28701
932.777	5.78631
932.951	6.24124
933.125	4.6767
933.3	3.8283
933.474	2.00538
933.648	8.62054
933.823	6.04594
933.997	6.50062
934.171	-2.65732
934.345	0.7971
934.52	-0.92982
934.694	8.00251
934.868	12.99102
935.042	18.01093
935.217	15.50052
935.391	7.41598
935.565	0.66878
935.739	-6.79544
935.913	-6.69748
936.087	-0.76502
936.261	5.42788
936.435	13.08636
936.609	12.27117
936.783	16.93197
936.957	13.80388
937.131	11.48941
937.305	6.37214
937.479	6.04656
937.653	2.75484
937.827	-0.08125
938.001	6.6641
938.175	11.97593
938.349	17.09301
938.523	5.84942
938.697	1.9065
938.87	-5.00342
939.044	-3.08034
939.218	-5.7198
939.392	-0.21015
939.566	-1.80751
939.739	-3.11268
939.913	-0.34248
940.087	-4.54889
940.261	6.07762
940.434	4.28383
940.608	10.47822
940.782	0.47134
940.955	-2.2987
941.129	-2.68944
941.302	-4.87532
941.476	-2.49522
941.65	-10.25412
941.823	-4.05874
941.997	-3.40755
942.17	2.81912
942.344	12.43089
942.517	15.49573
942.691	12.43239
942.864	5.46095
943.038	-0.89589
943.211	5.52557
943.385	-2.26223
943.558	-3.85727
943.731	-5.29221
943.905	0.80055
944.078	0.27739
944.251	-0.37416
944.425	1.05919
944.598	1.02515
944.771	0.89471
944.945	2.13403
945.118	4.38404
945.291	5.75344
945.464	-4.74418
945.638	0.46879
945.811	-2.69321
945.984	1.57859
946.157	-2.7541
946.33	1.58026
946.503	8.26314
946.677	6.56764
946.85	8.06797
947.023	2.88469
947.196	10.57838
947.369	7.71005
947.542	12.04472
947.715	4.87285
947.888	7.28327
948.061	5.36054
948.234	2.88272
948.407	-1.81005
948.58	-2.75544
948.753	-1.93996
948.926	2.36378
949.099	2.46163
949.271	7.80684
949.444	4.77476
949.617	2.26484
949.79	0.89605
949.963	2.00429
950.136	3.08009
950.308	0.37495
950.481	-3.89467
950.654	1.22276
950.827	6.01474
950.999	6.60087
951.172	6.24235
951.345	5.13238
951.517	12.01163
951.69	6.47029
951.863	5.91765
952.035	6.73074
952.208	12.33819
952.381	12.8592
952.553	10.44713
952.726	5.45917
952.898	4.70982
953.071	2.33032
953.243	3.27578
953.416	-0.6023
953.588	1.94131
953.761	-0.56895
953.933	0.08207
954.106	-1.64674
954.278	-0.37535
954.45	1.67831
954.623	-1.3854
954.795	-3.96023
954.967	-10.0247
955.14	-5.46066
955.312	-3.14662
955.484	-0.47249
955.657	-1.90726
955.829	1.80857
956.001	2.03696
956.173	2.33089
956.346	3.66895
956.518	11.36235
956.69	8.2975
956.862	0.63652
957.034	-2.98191
957.207	-5.19724
957.379	4.0262
957.551	5.5898
957.723	5.81527
957.895	3.5994
958.067	0.63377
958.239	7.70847
958.411	2.59079
958.583	5.09938
958.755	3.04649
958.927	7.51153
959.099	6.43702
959.271	2.23205
959.443	1.94003
959.615	1.61353
959.787	7.67612
959.959	7.28457
960.13	11.32679
960.302	9.11029
960.474	9.66448
960.646	8.58887
960.818	10.25289
960.99	6.7645
961.161	1.74495
961.333	3.60191
961.505	9.79489
961.677	8.68721
961.848	6.73146
962.02	3.14704
962.192	5.5585
962.363	10.54208
962.535	9.69418
962.707	8.45559
962.878	0.50527
963.05	5.98182
963.221	7.41626
963.393	7.12293
963.564	3.34141
963.736	1.12473
963.907	2.19993
964.079	-3.2106
964.25	7.18546
964.422	13.54297
964.593	10.05429
964.765	1.45093
964.936	-8.98112
965.108	-1.48384
965.279	0.21135
965.45	8.45929
965.622	13.34829
965.793	12.6637
965.964	13.54525
966.136	4.61398
966.307	7.93728
966.478	1.83964
966.65	10.25035
966.821	12.33749
966.992	10.61011
967.163	5.16621
967.334	-5.29776
967.506	-0.44071
967.677	0.34174
967.848	1.09256
968.019	2.13656
968.19	2.78832
968.361	7.48221
968.532	11.29382
968.703	12.27142
968.874	12.40153
969.045	3.95988
969.216	5.39503
969.387	5.68864
969.558	5.81904
969.729	5.91624
969.9	-1.54635
970.071	-1.97004
970.242	-4.28476
970.413	3.43868
970.584	8.94724
970.755	7.41558
970.926	5.85046
971.097	1.15679
971.267	5.1344
971.438	4.58069
971.609	6.7963
971.78	3.07958
971.951	-4.02566
972.121	-1.02574
972.292	3.63437
972.463	10.87017
972.633	8.13209
972.804	3.01553
972.975	6.01428
973.145	3.66723
973.316	7.80746
973.487	3.08095
973.657	10.97163
973.828	6.73357
973.998	6.76588
974.169	1.25448
974.339	2.65588
974.51	3.47102
974.68	0.99395
974.851	6.37468
975.021	9.76478
975.192	11.75322
975.362	1.28656
975.533	-2.07098
975.703	-1.77822
975.874	4.25408
976.044	9.17556
976.214	11.81533
976.385	10.21732
976.555	4.44805
976.725	1.38404
976.896	1.25372
977.066	1.2868
977.236	4.70895
977.406	4.15472
977.577	8.52055
977.747	2.52448
977.917	7.6424
978.087	5.06903
978.257	9.73089
978.427	1.61452
978.598	3.47266
978.768	-2.42821
978.938	0.73323
979.108	-2.62407
979.278	1.38611
979.448	2.68976
979.618	4.02609
979.788	1.97188
979.958	-0.3094
980.128	-0.89611
980.298	0.21248
980.468	4.35048
980.638	9.99029
980.808	9.01205
980.978	6.17774
981.148	-1.15723
981.317	-0.73327
981.487	3.73267
981.657	1.45099
981.827	-0.37495
981.997	-7.22111
982.167	-5.13519
982.336	-0.76739
982.506	2.94899
982.676	7.28368
982.846	4.74149
983.015	9.89263
983.185	9.92481
983.355	11.32617
983.524	0.86108
983.694	-1.35416
983.864	-4.28757
984.033	6.53514
984.203	10.08794
984.372	9.33823
984.542	0.27664
984.712	-2.29817
984.881	4.48092
985.051	2.72124
985.22	5.16531
985.39	-0.21193
985.559	2.49342
985.728	7.96987
985.898	9.89276
986.067	5.65555
986.237	-5.16579
986.406	-7.74074
986.576	1.09305
986.745	9.66464
986.914	8.23084
987.084	6.66643
987.253	4.9073
987.422	7.97109
987.591	5.36228
987.761	-2.65694
987.93	-5.19882
988.099	-3.99249
988.268	1.18978
988.438	2.98185
988.607	7.38022
988.776	-0.05086
988.945	1.05747
989.114	-1.45061
989.283	5.32982
989.452	7.74139
989.621	9.92427
989.791	6.1754
989.96	6.30574
990.129	2.16737
990.298	4.90544
990.467	2.20066
990.636	-1.35402
990.805	-9.79772
990.974	-1.32095
991.142	2.98259
991.311	8.29833
991.48	-1.93884
991.649	-1.28634
991.818	8.29464
991.987	9.82677
992.156	16.54214
992.325	9.50232
992.493	9.72813
992.662	4.96747
992.831	-0.11536
993	0.47398
993.168	-5.22971
993.337	0.53771
993.506	1.67818
993.675	8.32746
993.843	8.32777
994.012	9.76057
994.181	5.75221
994.349	7.57776
994.518	5.4286
994.686	4.74386
994.855	3.34154
995.024	1.7762
995.192	4.67673
995.361	2.42779
995.529	-3.24389
995.698	-5.10117
995.866	-3.99296
996.035	0.27722
996.203	2.13576
996.371	3.37438
996.54	6.24227
996.708	-0.70172
996.877	-3.01637
997.045	-6.40521
997.213	-4.22123
997.382	2.1344
997.55	7.54322
997.718	8.06531
997.887	12.92116
998.055	7.25082
998.223	10.5097
998.391	-0.1148
998.56	4.28566
998.728	1.28718
998.896	4.18911
999.064	4.87218
999.232	4.77443
999.401	2.10079
999.569	3.53762
999.737	5.88452
999.905	7.5144
1000.073	3.6668
1000.241	1.18941
1000.409	0.08097
1000.577	-1.19011
1000.745	7.02433
1000.913	6.11178
1001.081	10.12161
1001.249	2.72235
1001.417	6.63428
1001.585	3.9284
1001.753	6.0475
1001.921	2.20072
1002.089	-1.25493
1002.256	-1.51584
1002.424	-5.03621
1002.592	0.34265
1002.76	-1.93927
1002.928	4.09221
1003.096	4.22204
1003.263	3.40763
1003.431	3.7986
1003.599	0.47424
1003.767	5.00415
1003.934	6.92739
1004.102	6.04751
1004.27	7.44795
1004.437	4.15483
1004.605	1.84153
1004.773	3.82994
1004.94	5.62343
1005.108	8.49052
1005.275	-2.16772
1005.443	-4.74371
1005.61	-10.4804
1005.778	-4.31862
1005.945	-4.64459
1006.113	1.84194
1006.28	0.7987
1006.448	4.90697
1006.615	3.7663
1006.783	6.27569
1006.95	2.78667
1007.118	5.94829
1007.285	0.11433
1007.452	-1.1894
1007.62	-0.66808
1007.787	4.31832
1007.954	9.49997
1008.122	3.86134
1008.289	2.06937
1008.456	0.08243
1008.623	1.51636
1008.791	4.28548
1008.958	5.75116
1009.125	3.04674
1009.292	0.76598
1009.459	-1.18864
1009.627	3.79744
1009.794	1.32086
1009.961	-2.00403
1010.128	4.05726
1010.295	7.54531
1010.462	12.36942
1010.629	1.48367
1010.796	-1.71145
1010.963	-4.18878
1011.13	1.32023
1011.297	0.96146
1011.464	0.47235
1011.631	-0.24478
1011.798	1.5808
1011.965	1.84169
1012.132	2.91746
1012.299	2.75438
1012.466	3.66707
1012.633	1.2873
1012.799	4.35114
1012.966	4.77545
1013.133	4.80852
1013.3	5.7218
1013.467	1.02688
1013.633	0.14676
1013.8	-2.59136
1013.967	3.40586
1014.134	4.93768
1014.3	5.45912
1014.467	2.91766
1014.634	3.21097
1014.8	0.99427
1014.967	-0.66823
1015.134	4.18841
1015.3	10.31706
1015.467	16.83697
1015.633	22.44112
1015.8	19.63793
1015.966	13.607
1016.133	1.67984
1016.3	6.80007
1016.466	7.8104
1016.632	16.05602
1016.799	4.57924
1016.965	6.01321
1017.132	-1.54834
1017.298	2.94966
1017.465	2.55776
1017.631	0.01452
1017.797	3.79517
1017.964	1.64497
1018.13	5.26386
1018.296	6.30638
1018.463	8.16432
1018.629	19.18141
1018.795	8.03339
1018.961	6.07778
1019.128	-7.80767
1019.294	-2.39555
1019.46	1.15778
1019.626	3.86318
1019.792	8.39315
1019.959	12.50132
1020.125	8.78566
1020.291	7.61432
1020.457	2.62527
1020.623	9.40483
1020.789	10.8058
1020.955	7.35107
1021.121	7.67552
1021.287	-1.28947
1021.453	2.81741
1021.619	4.31975
1021.785	8.39461
1021.951	9.34039
1022.117	2.49425
1022.283	-1.93868
1022.449	-2.81871
1022.615	-4.67605
1022.781	-0.34091
1022.946	-6.01286
1023.112	-3.37299
1023.278	3.66687
1023.444	4.64444
1023.61	9.53455
1023.775	4.64585
1023.941	3.99313
1024.107	2.03621
1024.273	5.33075
1024.438	11.5888
1024.604	13.34276
1024.77	4.67142
1024.935	-0.2823
1025.101	1.97297
1025.267	6.56758
1025.432	12.50186
1025.598	7.54694
1025.763	7.80771
1025.929	7.64324
1026.095	6.89381
1026.26	6.56833
1026.426	3.27582
1026.591	3.30844
1026.757	-1.38584
1026.922	0.24414
1027.087	2.13468
1027.253	-0.57225
1027.418	5.81237
1027.584	-0.21935
1027.749	9.75612
1027.914	7.90508
1028.08	17.81587
1028.245	7.48301
1028.41	4.18906
1028.576	-0.43957
1028.741	8.45929
1028.906	4.18843
1029.072	-0.96233
1029.237	-3.86317
1029.402	-4.93823
1029.567	-1.22174
1029.732	0.47352
1029.898	3.34162
1030.063	0.14667
1030.228	0.30861
1030.393	-2.69042
1030.558	3.8949
1030.723	0.08179
1030.888	1.38557
1031.053	-2.78732
1031.218	-0.76616
1031.383	-0.50538
1031.548	1.64673
1031.713	1.1252
1031.878	-0.47243
1032.043	-1.41844
1032.208	4.35302
1032.373	10.48002
1032.538	15.23987
1032.703	8.97987
1032.868	10.32089
1033.033	0.05286
1033.198	4.2893
1033.362	-3.60248
1033.527	2.26403
1033.692	2.00376
1033.857	4.57911
1034.021	4.31869
1034.186	1.74376
1034.351	3.8953
1034.516	9.10926
1034.68	3.53441
1034.845	-2.91955
1035.01	-3.86232
1035.174	3.70078
1035.339	5.7869
1035.504	6.50095
1035.668	9.56674
1035.833	9.30563
1035.997	3.83146
1036.162	3.73384
1036.326	6.89579
1036.491	4.54904
1036.655	4.28493
1036.82	7.47879
1036.984	11.78089
1037.149	10.50983
1037.313	6.50106
1037.478	-1.28907
1037.642	-2.85168
1037.807	-2.81907
1037.971	4.09086
1038.135	2.004
1038.3	1.18927
1038.464	3.40685
1038.628	5.94794
1038.792	10.57768
1038.957	7.25231
1039.121	8.62175
1039.285	5.36079
1039.449	6.59947
1039.614	3.24318
1039.778	1.09259
1039.942	3.20991
1040.106	2.4927
1040.27	4.77365
1040.434	1.67856
1040.599	10.83896
1040.763	14.29621
1040.927	16.90427
1041.091	11.19892
1041.255	6.56846
1041.419	7.67565
1041.583	1.51534
1041.747	0.57008
1041.911	-3.11271
1042.075	-0.89653
1042.239	3.95821
1042.403	1.38321
1042.567	4.57758
1042.731	1.48298
1042.894	0.73395
1043.058	0.18047
1043.222	-0.86259
1043.386	4.74247
1043.55	-1.15766
1043.714	4.77567
1043.877	7.64371
1044.041	13.05417
1044.205	7.93606
1044.369	6.24339
1044.532	5.85206
1044.696	7.12358
1044.86	2.00535
1045.023	-2.72041
1045.187	-6.17602
1045.351	-3.43785
1045.514	2.23342
1045.678	7.70943
1045.841	9.28963
