Data from H2O_Subt9__4__00044.txt Node

Date: Tue Nov 04 10:20:31 EST 2025
User: brett
Spectrometer: USB4F03499
Trigger mode: 4
Integration Time (sec): 3.000000E-2
Scans to average: 15
Electric dark correction enabled: true
Nonlinearity correction enabled: true
Boxcar width: 1
XAxis mode: Wavelengths
Number of Pixels in Spectrum: 3648
>>>>>Begin Spectral Data<<<<<
345.386	-3.09885
345.605	-3.09885
345.824	-2.57716
346.044	-1.98995
346.263	2.57307
346.482	2.80185
346.701	3.61717
346.92	0.06536
347.139	-1.5319
347.358	-4.04042
347.577	2.08939
347.796	1.665
348.015	5.44494
348.234	0.55391
348.453	-0.1299
348.672	-5.02065
348.891	-10.95332
349.11	-2.47829
349.329	3.06381
349.548	10.26664
349.767	13.20271
349.986	17.01511
350.205	22.55848
350.424	23.92589
350.643	27.34911
350.862	14.14959
351.08	12.25288
351.299	8.11327
351.518	18.44249
351.737	13.68747
351.956	15.02326
352.174	16.5876
352.393	18.93516
352.612	22.3529
352.831	27.76522
353.049	33.69344
353.268	33.1731
353.487	31.73948
353.705	26.007
353.924	26.26806
354.143	24.4731
354.361	31.01921
354.58	27.96012
354.798	34.24178
355.017	36.03425
355.236	41.99419
355.454	37.20738
355.673	35.05473
355.891	34.07613
356.11	37.39913
356.328	40.29974
356.547	42.28545
356.765	40.03927
356.984	41.92779
357.202	41.99391
357.42	40.82027
357.639	37.13695
357.857	42.76154
358.076	47.35298
358.294	54.1986
358.512	52.93453
358.731	52.44486
358.949	47.09656
359.167	43.83472
359.386	45.13985
359.604	43.99434
359.822	48.10611
360.04	49.63188
360.259	51.78435
360.477	48.95015
360.695	46.92903
360.913	50.90831
361.131	51.32847
361.35	49.73066
361.568	47.02594
361.786	44.74163
362.004	51.06676
362.222	49.1775
362.44	51.07529
362.658	47.78009
362.876	51.26068
363.094	53.80009
363.312	55.85809
363.53	57.67781
363.749	53.01902
363.967	48.851
364.184	42.3421
364.402	48.82441
364.62	46.09037
364.838	42.80614
365.056	32.4778
365.274	33.09184
365.492	34.23143
365.71	32.47427
365.928	28.70056
366.146	26.09459
366.364	29.03065
366.581	27.98752
366.799	29.35999
367.017	29.29804
367.235	32.91277
367.453	32.02905
367.67	26.88045
367.888	23.10161
368.106	24.10219
368.323	22.73137
368.541	16.11759
368.759	18.44033
368.977	20.6895
369.194	29.3266
369.412	25.41917
369.629	22.02795
369.847	18.50624
370.065	19.67938
370.282	22.22188
370.5	29.48453
370.717	28.76452
370.935	26.97305
371.152	25.44185
371.37	25.31189
371.588	30.97937
371.805	35.73648
372.022	34.88752
372.24	31.24093
372.457	24.88742
372.675	31.54261
372.892	33.98199
373.11	31.31257
373.327	28.31264
373.544	32.9396
373.762	37.26989
373.979	36.48284
374.196	34.88653
374.414	37.39539
374.631	41.76218
374.848	40.45842
375.066	41.20869
375.283	38.21132
375.5	41.36972
375.717	43.09729
375.935	40.62117
376.152	38.85947
376.369	32.89891
376.586	36.44299
376.803	38.98828
377.02	42.99377
377.238	45.99651
377.455	45.07906
377.672	42.89899
377.889	36.0274
378.106	39.87749
378.323	42.67939
378.54	47.1358
378.757	41.92141
378.974	39.11753
379.191	40.88185
379.408	41.9246
379.625	36.90511
379.842	37.59307
380.059	40.59049
380.276	49.71339
380.493	44.13653
380.71	41.23568
380.927	37.97174
381.143	43.12254
381.36	50.46834
381.577	58.94163
381.794	59.87489
382.011	50.66916
382.228	40.24397
382.444	39.76147
382.661	47.35367
382.878	51.33209
383.095	56.01383
383.311	56.14359
383.528	58.42426
383.745	58.10472
383.962	56.47802
384.178	53.48007
384.395	46.8403
384.612	47.9071
384.828	46.63605
385.045	47.99877
385.261	43.77296
385.478	45.33616
385.695	42.63425
385.911	43.44479
386.128	44.91298
386.344	45.50459
386.561	44.82228
386.777	45.43712
386.994	49.27703
387.21	48.92163
387.427	48.43716
387.643	49.35119
387.86	52.76885
388.076	57.03585
388.292	50.87267
388.509	44.75386
388.725	37.5159
388.942	42.86214
389.158	44.71231
389.374	43.63876
389.591	41.81631
389.807	45.10501
390.023	56.17778
390.239	54.3905
390.456	48.5606
390.672	39.77516
390.888	38.04225
391.104	40.42242
391.321	43.05719
391.537	47.78192
391.753	47.9065
391.969	46.1734
392.185	45.26348
392.401	47.84525
392.618	48.56945
392.834	48.69554
393.05	50.02344
393.266	46.69615
393.482	43.92824
393.698	43.82857
393.914	50.63301
394.13	61.24976
394.346	54.38449
394.562	50.94172
394.778	41.46582
394.994	47.26272
395.21	46.40816
395.426	49.99303
395.642	53.73866
395.858	54.71791
396.073	55.49574
396.289	54.02885
396.505	51.03359
396.721	49.2815
396.937	43.77987
397.153	40.39432
397.369	40.39621
397.584	41.33978
397.8	42.21532
398.016	41.65343
398.232	46.3679
398.447	46.40905
398.663	44.46096
398.879	38.63904
399.094	38.92688
399.31	39.96454
399.526	43.34769
399.741	46.44333
399.957	44.5927
400.173	38.01985
400.388	34.66699
400.604	30.59126
400.82	33.58474
401.035	41.42973
401.251	43.61452
401.466	48.01796
401.682	39.84392
401.897	43.97605
402.113	41.07343
402.328	42.86757
402.544	41.79274
402.759	36.06094
402.974	35.3072
403.19	41.01116
403.405	42.44327
403.621	38.07657
403.836	33.74496
404.051	36.19285
404.267	40.69309
404.482	37.6605
404.697	38.43702
404.913	41.72458
405.128	42.31218
405.343	41.86057
405.559	41.89327
405.774	40.8859
405.989	41.59655
406.204	40.0684
406.42	42.64026
406.635	48.27455
406.85	47.58588
407.065	38.53204
407.28	36.28773
407.495	37.49805
407.71	43.42402
407.926	38.96399
408.141	34.85598
408.356	37.75392
408.571	39.64058
408.786	43.29015
409.001	43.97832
409.216	46.45443
409.431	44.82403
409.646	45.89976
409.861	41.85585
410.076	43.09993
410.291	36.12784
410.506	39.06619
410.721	40.33125
410.936	47.49847
411.15	53.31382
411.365	52.29922
411.58	52.91648
411.795	54.51904
412.01	53.77586
412.225	60.583
412.439	57.68464
412.654	63.90088
412.869	54.06672
413.084	49.60891
413.299	47.26953
413.513	50.81452
413.728	51.16526
413.943	48.75055
414.157	45.23034
414.372	44.28749
414.587	42.72488
414.801	41.13046
415.016	39.63843
415.231	44.59311
415.445	48.33538
415.66	50.51559
415.874	45.59571
416.089	44.52674
416.304	47.03149
416.518	57.94064
416.733	59.76066
416.947	55.49562
417.162	42.17364
417.376	37.48305
417.59	37.29016
417.805	44.1637
418.019	47.09549
418.234	52.99198
418.448	49.34454
418.663	54.7277
418.877	54.01019
419.091	49.84064
419.306	50.35025
419.52	45.46522
419.734	55.61967
419.949	44.81447
420.163	47.48654
420.377	40.58836
420.591	44.7833
420.806	38.13792
421.02	42.46863
421.234	42.63163
421.448	44.00181
421.663	39.02602
421.877	38.93469
422.091	42.48146
422.305	40.45875
422.519	37.03829
422.733	35.93187
422.947	41.66235
423.161	41.62722
423.376	49.69539
423.59	51.94233
423.804	49.33671
424.018	38.72366
424.232	38.71723
424.446	46.95431
424.66	53.99798
424.874	51.59922
425.088	46.8676
425.302	45.42977
425.515	44.41127
425.729	47.97517
425.943	44.65449
426.157	42.6986
426.371	47.53649
426.585	46.65179
426.799	49.29918
427.013	45.14232
427.226	48.14324
427.44	47.71724
427.654	47.25526
427.868	39.17894
428.081	38.81807
428.295	39.60764
428.509	43.25538
428.723	40.58309
428.936	37.52479
429.15	38.23511
429.364	38.20948
429.577	38.208
429.791	38.79743
430.005	39.15428
430.218	42.90178
430.432	43.9123
430.645	39.22081
430.859	29.97038
431.073	28.0175
431.286	34.66772
431.5	39.09563
431.713	42.77552
431.927	39.51753
432.14	36.81543
432.354	29.6861
432.567	26.32985
432.781	28.14989
432.994	30.97844
433.207	37.26616
433.421	38.86385
433.634	40.94811
433.848	40.81268
434.061	39.11707
434.274	38.66393
434.488	40.48231
434.701	46.99299
434.914	48.13143
435.127	46.18257
435.341	41.13915
435.554	41.26712
435.767	44.1043
435.98	44.72213
436.194	45.90086
436.407	48.2118
436.62	53.68572
436.833	51.66513
437.046	48.73734
437.259	41.59785
437.473	46.84271
437.686	49.37466
437.899	52.01502
438.112	46.15235
438.325	46.28039
438.538	51.71916
438.751	56.57938
438.964	57.10657
439.177	52.54409
439.39	55.23153
439.603	55.88504
439.816	54.09843
440.029	56.07432
440.242	52.61517
440.455	63.1292
440.668	58.81315
440.881	60.67548
441.094	57.19197
441.306	61.13044
441.519	67.11419
441.732	68.54398
441.945	68.56838
442.158	66.2542
442.37	71.72753
442.583	78.77331
442.796	80.65516
443.009	70.78935
443.222	63.29448
443.434	61.18865
443.647	61.50953
443.86	58.31985
444.072	59.10177
444.285	57.27883
444.498	61.6088
444.71	56.63186
444.923	56.89523
445.136	49.40469
445.348	51.75275
445.561	52.64123
445.773	57.00667
445.986	59.47641
446.198	63.57761
446.411	61.1718
446.623	55.27704
446.836	49.64819
447.048	47.97986
447.261	43.32115
447.473	45.35405
447.686	44.37988
447.898	49.97938
448.11	59.95948
448.323	61.29597
448.535	56.1834
448.748	42.76324
448.96	40.09034
449.172	40.41969
449.385	41.88412
449.597	44.00306
449.809	47.45225
450.021	45.88942
450.234	49.65962
450.446	50.43803
450.658	53.70366
450.87	54.93669
451.083	54.8688
451.295	57.29544
451.507	54.37719
451.719	56.27111
451.931	52.29883
452.143	62.42147
452.356	63.85339
452.568	73.54675
452.78	70.61531
452.992	69.53842
453.204	65.24652
453.416	62.05144
453.628	67.91533
453.84	72.53556
454.052	80.77297
454.264	83.3319
454.476	80.90044
454.688	78.39453
454.9	79.41053
455.112	74.61843
455.324	72.47824
455.536	72.6096
455.747	77.71254
455.959	81.30822
456.171	85.50094
456.383	86.76832
456.595	83.29428
456.807	79.23427
457.018	76.60994
457.23	74.74889
457.442	72.75403
457.654	74.2112
457.865	74.13854
458.077	72.09551
458.289	69.98891
458.501	74.72843
458.712	80.91904
458.924	84.10923
459.136	79.51426
459.347	66.62223
459.559	62.13545
459.77	58.42917
459.982	61.87093
460.194	59.61874
460.405	60.0112
460.617	59.33703
460.828	59.14906
461.04	54.74595
461.251	58.29156
461.463	62.28621
461.674	63.58565
461.886	50.43305
462.097	42.95135
462.309	44.82091
462.52	50.85339
462.731	48.25117
462.943	48.73918
463.154	46.51169
463.366	50.81434
463.577	43.1224
463.788	51.4719
464	50.35544
464.211	55.24594
464.422	48.56938
464.634	50.39713
464.845	50.91283
465.056	54.45754
465.267	55.14316
465.478	57.52932
465.69	53.51947
465.901	50.29532
466.112	48.30522
466.323	49.41519
466.534	53.54018
466.745	58.41803
466.957	57.34151
467.168	54.90734
467.379	52.18227
467.59	49.38536
467.801	50.03226
468.012	48.58755
468.223	48.58906
468.434	45.10257
468.645	43.27723
468.856	50.0459
469.067	50.57159
469.278	52.98873
469.489	46.64109
469.7	41.7909
469.911	38.59968
470.122	44.79142
470.333	57.01194
470.543	55.12082
470.754	57.55753
470.965	56.33909
471.176	63.43325
471.387	59.20071
471.598	60.96177
471.808	67.90995
472.019	69.59766
472.23	64.90841
472.441	61.83747
472.651	63.60255
472.862	71.3722
473.073	68.96592
473.283	66.6827
473.494	59.95364
473.705	61.4131
473.915	60.49164
474.126	61.0713
474.337	62.01852
474.547	59.16348
474.758	64.40766
474.968	62.5479
475.179	67.42132
475.389	71.89461
475.6	64.99187
475.81	67.41578
476.021	62.17062
476.231	68.36105
476.442	65.16842
476.652	59.95579
476.863	63.04961
477.073	65.517
477.284	67.46934
477.494	66.48903
477.704	66.75112
477.915	67.42912
478.125	70.98229
478.335	70.39057
478.546	67.69617
478.756	55.67671
478.966	56.14292
479.177	60.27174
479.387	68.28638
479.597	70.92311
479.807	73.82313
480.018	68.90383
480.228	66.82032
480.438	65.31872
480.648	74.02463
480.858	77.68684
481.068	76.92469
481.279	75.53603
481.489	79.29194
481.699	79.72198
481.909	93.40217
482.119	96.99427
482.329	107.7155
482.539	107.06911
482.749	110.93121
482.959	121.26977
483.169	128.79867
483.379	139.77386
483.589	145.12595
483.799	152.83394
484.009	161.80641
484.219	168.04143
484.429	176.12124
484.639	180.47076
484.849	183.86981
485.059	182.58038
485.268	186.91938
485.478	184.70273
485.688	184.69767
485.898	184.7233
486.108	197.85844
486.317	218.88014
486.527	232.3416
486.737	248.43361
486.947	252.85111
487.156	263.37182
487.366	262.21935
487.576	276.36982
487.785	279.12229
487.995	288.78318
488.205	282.91531
488.414	289.7804
488.624	298.5397
488.834	302.16467
489.043	297.52596
489.253	294.83417
489.462	301.15047
489.672	306.92676
489.882	305.55954
490.091	303.61312
490.301	305.21139
490.51	305.48775
490.72	301.88627
490.929	302.31162
491.138	301.2591
491.348	297.04974
491.557	290.44641
491.767	285.63591
491.976	280.03299
492.185	268.0299
492.395	260.68946
492.604	257.32848
492.813	257.48366
493.023	249.7009
493.232	246.07656
493.441	234.33091
493.651	231.22724
493.86	225.36929
494.069	231.90829
494.278	236.15102
494.488	230.24391
494.697	221.59675
494.906	212.53648
495.115	206.94377
495.324	203.43833
495.533	190.78309
495.743	189.14905
495.952	183.95358
496.161	178.59984
496.37	168.93744
496.579	162.26256
496.788	158.10021
496.997	153.4436
497.206	145.25067
497.415	137.83479
497.624	132.39961
497.833	115.47846
498.042	111.30767
498.251	104.0368
498.46	105.99457
498.669	100.83429
498.878	102.31366
499.087	106.2232
499.296	106.12617
499.504	95.85315
499.713	92.36386
499.922	94.54264
500.131	96.89723
500.34	96.68755
500.549	96.81586
500.757	97.35805
500.966	91.58591
501.175	88.84815
501.384	90.29779
501.592	97.9416
501.801	97.84702
502.01	96.74659
502.218	101.17153
502.427	103.45247
502.636	104.21144
502.844	99.4934
503.053	100.57119
503.262	100.82512
503.47	103.94121
503.679	100.93025
503.887	101.0861
504.096	102.85122
504.304	102.15876
504.513	100.14433
504.721	86.27855
504.93	86.04813
505.138	87.83016
505.347	94.11987
505.555	91.86883
505.764	90.34881
505.972	88.13461
506.18	87.2658
506.389	82.24885
506.597	84.69181
506.806	88.68076
507.014	99.79116
507.222	100.28027
507.431	97.71213
507.639	89.15221
507.847	91.41215
508.055	96.75606
508.264	104.5523
508.472	106.30584
508.68	111.63433
508.888	107.30967
509.096	103.99544
509.305	99.34457
509.513	100.88506
509.721	92.68856
509.929	89.34469
510.137	86.50585
510.345	98.55023
510.553	99.91085
510.762	102.61305
510.97	101.86194
511.178	101.66522
511.386	105.58693
511.594	103.33303
511.802	97.95749
512.01	94.43141
512.218	98.37184
512.426	102.55928
512.634	104.76186
512.842	100.31086
513.049	105.07672
513.257	109.47546
513.465	106.54282
513.673	99.58861
513.881	96.60249
514.089	97.94007
514.297	100.43834
514.504	99.10821
514.712	91.08921
514.92	94.33104
515.128	92.70612
515.336	102.60606
515.543	104.68636
515.751	106.28553
515.959	108.30982
516.166	110.57042
516.374	115.89507
516.582	111.00268
516.789	108.39994
516.997	107.44467
517.205	111.84351
517.412	113.8423
517.62	116.97275
517.827	121.99293
518.035	127.57726
518.243	129.9368
518.45	137.04941
518.658	138.86267
518.865	151.02029
519.073	154.14286
519.28	161.26199
519.488	159.94053
519.695	169.96535
519.902	180.84432
520.11	191.17662
520.317	200.19265
520.525	203.21964
520.732	213.10128
520.939	225.10663
521.147	237.43627
521.354	245.65551
521.561	249.3583
521.769	254.84306
521.976	255.64942
522.183	259.69493
522.391	259.11118
522.598	261.05186
522.805	252.70634
523.012	247.6936
523.219	244.18195
523.427	245.72586
523.634	250.6252
523.841	251.01758
524.048	250.71234
524.255	245.84979
524.462	242.79334
524.669	240.45238
524.877	241.75362
525.084	239.34176
525.291	238.37831
525.498	235.29593
525.705	236.02693
525.912	228.87721
526.119	224.51688
526.326	216.32364
526.533	220.08562
526.74	216.61217
526.947	213.69439
527.153	209.63122
527.36	204.38106
527.567	205.65885
527.774	196.99393
527.981	194.37798
528.188	185.05824
528.395	181.12048
528.602	169.60941
528.808	165.78824
529.015	161.82169
529.222	153.6093
529.429	140.04554
529.635	124.43843
529.842	123.95056
530.049	119.72078
530.256	114.80409
530.462	109.22598
530.669	105.80865
530.876	104.43667
531.082	97.7687
531.289	96.09839
531.495	99.49521
531.702	100.53531
531.909	95.52253
532.115	81.06676
532.322	80.48508
532.528	80.22395
532.735	86.2498
532.941	81.08559
533.148	81.38792
533.354	79.4284
533.561	85.99873
533.767	86.61042
533.974	92.66963
534.18	88.04181
534.387	87.95479
534.593	77.56697
534.799	80.17283
535.006	85.88683
535.212	92.43195
535.418	90.23957
535.625	87.34659
535.831	92.54621
536.037	95.51533
536.244	90.1729
536.45	86.99019
536.656	86.11787
536.862	89.77637
537.068	87.59291
537.275	84.6972
537.481	83.90417
537.687	85.60288
537.893	86.03084
538.099	87.88774
538.305	90.38988
538.512	97.18803
538.718	98.57315
538.924	98.69877
539.13	96.91323
539.336	100.33688
539.542	99.0296
539.748	95.90845
539.954	98.00457
540.16	93.5287
540.366	88.6684
540.572	83.52746
540.778	84.85671
540.984	96.61808
541.19	96.12905
541.396	93.16422
541.602	82.44549
541.807	81.72939
542.013	89.41049
542.219	91.88244
542.425	92.78292
542.631	90.47552
542.837	92.51835
543.042	93.18424
543.248	89.64126
543.454	88.08923
543.66	85.31738
543.865	86.82067
544.071	85.59503
544.277	84.59816
544.483	87.09119
544.688	86.76304
544.894	85.58622
545.1	82.01313
545.305	86.26051
545.511	84.85292
545.716	82.54282
545.922	83.74879
546.128	86.71632
546.333	90.32799
546.539	84.93976
546.744	83.1737
546.95	83.94921
547.155	88.26823
547.361	83.15341
547.566	79.1924
547.772	70.05018
547.977	71.10744
548.182	72.43279
548.388	77.97124
548.593	79.78603
548.799	80.2519
549.004	78.23235
549.209	80.34444
549.415	77.47446
549.62	80.02509
549.825	75.18022
550.031	78.76851
550.236	76.87369
550.441	82.80902
550.646	81.59852
550.852	79.64978
551.057	75.31806
551.262	71.30813
551.467	73.48511
551.672	67.3548
551.878	66.78185
552.083	60.14611
552.288	63.07568
552.493	64.10652
552.698	66.41552
552.903	68.86789
553.108	66.97188
553.313	77.22867
553.518	76.67775
553.723	81.74166
553.928	78.0229
554.133	76.93416
554.338	72.83256
554.543	66.25548
554.748	67.62211
554.953	73.03601
555.158	78.96618
555.363	79.0938
555.568	75.33404
555.773	71.45473
555.978	70.93634
556.182	73.84346
556.387	76.34494
556.592	75.37525
556.797	71.16297
557.002	65.07717
557.206	79.48599
557.411	85.64939
557.616	95.48342
557.821	92.88269
558.025	91.82056
558.23	91.72621
558.435	82.48056
558.64	87.94904
558.844	82.26894
559.049	85.10815
559.253	83.35037
559.458	92.16195
559.663	97.35001
559.867	99.20036
560.072	99.81559
560.276	104.62249
560.481	112.67274
560.685	122.85497
560.89	129.76608
561.094	133.18477
561.299	133.9654
561.503	142.95487
561.708	148.58885
561.912	154.06281
562.117	156.52147
562.321	164.62484
562.525	172.70672
562.73	171.8011
562.934	175.3533
563.139	179.48965
563.343	187.41403
563.547	185.97249
563.752	185.51404
563.956	186.63666
564.16	185.09927
564.364	182.58528
564.569	176.68013
564.773	177.74157
564.977	178.38234
565.181	186.18216
565.385	186.67571
565.59	187.58385
565.794	183.75645
565.998	179.06327
566.202	182.13971
566.406	180.06526
566.61	174.44294
566.814	166.41657
567.018	172.57534
567.222	180.41901
567.426	180.44461
567.63	174.72618
567.834	171.34603
568.038	172.30942
568.242	164.90819
568.446	165.08514
568.65	158.86093
568.854	159.65926
569.058	161.13143
569.262	158.03019
569.466	153.80843
569.67	141.87488
569.874	139.27657
570.078	131.05559
570.281	130.09017
570.485	123.32668
570.689	124.06336
570.893	125.85896
571.097	129.01582
571.3	129.11447
571.504	118.96469
571.708	112.3474
571.912	105.88124
572.115	104.23501
572.319	107.54935
572.523	103.19069
572.726	102.50898
572.93	86.94816
573.133	82.35491
573.337	75.56042
573.541	85.17155
573.744	88.04065
573.948	90.80826
574.151	87.09154
574.355	83.83103
574.558	88.38907
574.762	82.17947
574.965	87.89095
575.169	84.65877
575.372	91.72201
575.576	89.63256
575.779	90.99228
575.983	92.61424
576.186	86.10019
576.389	84.39216
576.593	81.2954
576.796	88.09349
577	92.12364
577.203	92.23072
577.406	92.16765
577.609	91.18597
577.813	95.12617
578.016	96.30022
578.219	92.86121
578.423	90.15485
578.626	84.30127
578.829	80.85106
579.032	77.73007
579.235	85.26317
579.438	84.22905
579.642	83.06088
579.845	78.2532
580.048	83.17576
580.251	90.38948
580.454	93.12547
580.657	95.22947
580.86	89.88303
581.063	87.39065
581.266	85.95395
581.469	84.49962
581.672	85.50853
581.875	76.77819
582.078	80.91438
582.281	80.06458
582.484	89.06756
582.687	90.50129
582.89	88.93743
583.093	94.2623
583.296	96.70501
583.499	99.43877
583.702	97.05735
583.904	104.35015
584.107	107.37235
584.31	107.23234
584.513	98.7253
584.716	99.30467
584.918	108.28657
585.121	106.20465
585.324	108.67464
585.527	98.35807
585.729	101.15349
585.932	99.4717
586.135	102.82701
586.337	112.82323
586.54	108.19513
586.743	105.16783
586.945	91.98967
587.148	92.02885
587.35	93.23216
587.553	100.24195
587.755	108.73412
587.958	108.90728
588.161	104.34316
588.363	97.41631
588.566	94.37468
588.768	93.66429
588.971	92.06737
589.173	94.2188
589.375	91.70163
589.578	94.23133
589.78	89.93762
589.983	91.30139
590.185	90.30352
590.387	91.71037
590.59	90.38578
590.792	94.70335
590.994	97.92593
591.197	105.6566
591.399	97.81876
591.601	92.74755
591.803	84.75523
592.006	86.67161
592.208	92.41912
592.41	97.76697
592.612	97.97416
592.815	94.73244
593.017	95.72633
593.219	92.82378
593.421	97.04066
593.623	89.42094
593.825	89.83811
594.027	84.8426
594.229	85.04365
594.432	83.78764
594.634	83.71479
594.836	83.42575
595.038	92.14311
595.24	92.44251
595.442	98.76782
595.644	95.71124
595.846	96.69162
596.048	97.66582
596.249	100.68219
596.451	101.97232
596.653	90.41072
596.855	86.03063
597.057	86.41699
597.259	91.13761
597.461	88.25285
597.663	92.41495
597.864	97.6208
598.066	99.91473
598.268	95.37394
598.47	94.27245
598.671	97.72094
598.873	96.1785
599.075	89.30128
599.277	84.95032
599.478	82.18349
599.68	92.24491
599.882	102.28562
600.083	114.47299
600.285	117.05708
600.487	110.78049
600.688	102.86223
600.89	93.87654
601.091	97.48618
601.293	101.06792
601.494	102.26845
601.696	100.73629
601.898	99.60038
602.099	106.2877
602.301	104.50113
602.502	97.79024
602.703	93.99215
602.905	93.78432
603.106	99.50636
603.308	98.56434
603.509	98.50489
603.711	103.87632
603.912	106.95188
604.113	111.80221
604.315	111.00888
604.516	113.81543
604.717	115.77368
604.919	114.19025
605.12	120.42893
605.321	117.75638
605.522	118.09744
605.724	114.36392
605.925	119.0163
606.126	126.22173
606.327	126.63978
606.528	125.89562
606.729	123.84483
606.931	132.30144
607.132	134.18205
607.333	138.40012
607.534	136.45318
607.735	140.76168
607.936	142.91279
608.137	146.99284
608.338	151.30412
608.539	153.23589
608.74	150.5558
608.941	149.9575
609.142	153.33362
609.343	155.48699
609.544	161.59907
609.745	156.41705
609.946	159.95401
610.147	159.95663
610.348	168.05722
610.549	171.78882
610.75	172.91113
610.95	160.5311
611.151	155.9492
611.352	152.05741
611.553	163.19507
611.754	158.64813
611.954	155.14561
612.155	151.40349
612.356	153.98557
612.557	157.76888
612.757	161.01048
612.958	157.60972
613.159	152.33993
613.359	146.06821
613.56	142.53722
613.761	142.0323
613.961	138.3517
614.162	138.34982
614.362	143.77135
614.563	144.59703
614.764	143.60088
614.964	133.88395
615.165	130.23685
615.365	130.58225
615.566	124.9306
615.766	128.11395
615.967	124.77207
616.167	123.70636
616.368	117.20018
616.568	112.84727
616.768	113.78806
616.969	114.21538
617.169	110.96063
617.37	107.5437
617.57	103.34338
617.77	102.40994
617.971	104.42403
618.171	99.49667
618.371	98.77956
618.571	100.55475
618.772	102.77142
618.972	103.42539
619.172	91.8068
619.372	92.376
619.573	90.77971
619.773	95.46916
619.973	92.04362
620.173	83.98216
620.373	79.12517
620.573	75.70945
620.774	79.09153
620.974	77.29859
621.174	75.64313
621.374	74.61325
621.574	72.14252
621.774	75.01883
621.974	72.60091
622.174	75.701
622.374	72.82332
622.574	74.16763
622.774	67.17103
622.974	67.14812
623.174	67.3363
623.374	74.88638
623.574	74.75299
623.774	75.27956
623.973	73.66396
624.173	72.19146
624.373	67.68131
624.573	65.29933
624.773	67.35233
624.973	67.91899
625.172	62.12703
625.372	62.07267
625.572	65.19068
625.772	67.72518
625.971	61.73301
626.171	59.94322
626.371	58.38297
626.57	64.2456
626.77	62.10118
626.97	66.33533
627.169	58.67907
627.369	57.29302
627.569	59.86148
627.768	60.74497
627.968	64.90999
628.167	59.7695
628.367	58.40184
628.566	56.04904
628.766	58.19189
628.965	63.04562
629.165	61.54674
629.364	60.76981
629.564	57.96469
629.763	61.63981
629.963	62.70918
630.162	66.25544
630.362	65.21421
630.561	67.59682
630.76	66.1362
630.96	72.61932
631.159	70.14443
631.358	65.97698
631.558	60.05534
631.757	59.8897
631.956	61.90228
632.155	58.54792
632.355	60.07409
632.554	66.55692
632.753	67.86222
632.952	58.94546
633.152	58.61583
633.351	61.60727
633.55	70.13866
633.749	67.96489
633.948	62.71907
634.147	64.77461
634.346	62.91322
634.545	61.61366
634.744	57.34892
634.944	59.30655
635.143	63.59808
635.342	67.63463
635.541	63.95134
635.74	66.82705
635.939	61.05515
636.138	59.75421
636.336	54.18531
636.535	55.14209
636.734	54.03425
636.933	52.243
637.132	54.77318
637.331	58.71522
637.53	62.03367
637.729	54.45677
637.928	47.29111
638.126	46.35077
638.325	49.88913
638.524	52.56215
638.723	51.64673
638.921	51.94437
639.12	53.6372
639.319	53.27967
639.518	54.18975
639.716	61.23435
639.915	63.49267
640.114	56.20006
640.312	48.43328
640.511	49.37088
640.71	51.10027
640.908	50.77914
641.107	39.6752
641.305	40.91126
641.504	42.04768
641.702	52.55806
641.901	52.90851
642.099	46.92393
642.298	41.9799
642.496	45.54544
642.695	49.74229
642.893	50.72332
643.092	45.92664
643.29	49.83934
643.489	51.71655
643.687	56.28218
643.885	60.08697
644.084	57.26157
644.282	50.06044
644.48	42.05366
644.679	41.0718
644.877	40.38522
645.075	40.38238
645.274	46.61347
645.472	50.2556
645.67	51.39466
645.868	51.97511
646.067	53.47745
646.265	57.71121
646.463	52.56679
646.661	52.98158
646.859	48.06593
647.057	39.75965
647.256	41.14356
647.454	35.70284
647.652	42.51007
647.85	38.82607
648.048	46.03171
648.246	51.66612
648.444	49.68037
648.642	45.212
648.84	36.87273
649.038	40.09024
649.236	37.12967
649.434	37.13065
649.632	42.99802
649.83	55.30156
650.028	53.44577
650.226	50.48316
650.423	43.16399
650.621	48.27567
650.819	44.003
651.017	46.51245
651.215	46.47855
651.413	51.46608
651.61	48.13967
651.808	45.803
652.006	39.35457
652.204	37.6879
652.401	43.60587
652.599	46.8965
652.797	46.96731
652.995	45.4735
653.192	48.40443
653.39	50.91476
653.588	49.11907
653.785	45.56602
653.983	45.78952
654.18	48.55498
654.378	52.94955
654.576	55.6221
654.773	55.2981
654.971	57.29354
655.168	55.86367
655.366	57.71642
655.563	55.11335
655.761	56.77132
655.958	55.01623
656.156	55.20268
656.353	60.75103
656.55	81.68078
656.748	102.40073
656.945	133.70734
657.143	178.56643
657.34	237.70144
657.537	309.74709
657.735	379.61726
657.932	477.76209
658.129	577.3718
658.326	684.82041
658.524	794.24019
658.721	903.13745
658.918	1001.56927
659.115	1082.97766
659.313	1143.29766
659.51	1203.75103
659.707	1234.98848
659.904	1276.17102
660.101	1298.1896
660.298	1309.96853
660.496	1311.51127
660.693	1299.1718
660.89	1309.15282
661.087	1313.69701
661.284	1327.49091
661.481	1330.27524
661.678	1318.41947
661.875	1306.7355
662.072	1295.16681
662.269	1307.34107
662.466	1306.85481
662.663	1302.95262
662.86	1278.72153
663.057	1263.47693
663.254	1256.1331
663.45	1244.69412
663.647	1232.4569
663.844	1208.23697
664.041	1197.50231
664.238	1181.90196
664.435	1175.97534
664.631	1172.96621
664.828	1174.46546
665.025	1172.15497
665.222	1146.02206
665.419	1112.07058
665.615	1074.88849
665.812	1053.04199
666.009	1019.57663
666.205	968.50811
666.402	912.11481
666.599	862.52041
666.795	829.72634
666.992	809.92056
667.188	787.75038
667.385	768.29182
667.582	734.23182
667.778	715.05991
667.975	689.43854
668.171	660.56527
668.368	620.89353
668.564	575.41211
668.761	531.93614
668.957	496.48212
669.154	447.54283
669.35	389.6679
669.547	327.40837
669.743	275.64301
669.939	225.05747
670.136	174.10004
670.332	128.64663
670.528	94.3319
670.725	72.11563
670.921	58.88326
671.117	54.90823
671.314	52.89608
671.51	50.80901
671.706	45.9581
671.902	40.05995
672.099	39.77293
672.295	39.31784
672.491	43.7156
672.687	39.9973
672.883	41.20392
673.08	37.85383
673.276	38.86419
673.472	39.96787
673.668	41.66553
673.864	43.94551
674.06	44.53681
674.256	41.33672
674.452	39.1222
674.648	35.47274
674.844	35.69901
675.04	35.44368
675.236	36.67431
675.432	35.59835
675.628	39.861
675.824	38.72764
676.02	48.50919
676.216	44.66513
676.412	48.63133
676.608	41.78377
676.804	43.12027
676.999	49.08417
677.195	47.1651
677.391	45.17389
677.587	45.37142
677.783	52.95987
677.978	56.6007
678.174	52.62548
678.37	51.61477
678.566	48.75355
678.761	41.94628
678.957	36.40549
679.153	37.94762
679.348	46.40926
679.544	52.01639
679.74	51.93989
679.935	49.01654
680.131	49.70228
680.327	56.09202
680.522	52.02487
680.718	40.75163
680.913	36.3231
681.109	40.16323
681.304	47.88439
681.5	48.85395
681.695	49.47137
681.891	51.94823
682.086	52.83934
682.282	46.39614
682.477	33.9514
682.672	26.58574
682.868	33.78011
683.063	42.28435
683.259	44.82215
683.454	48.37353
683.649	48.5384
683.845	48.41397
684.04	37.89196
684.235	41.99616
684.43	39.02692
684.626	40.17128
684.821	26.22535
685.016	29.85574
685.211	27.66905
685.407	32.52069
685.602	32.14798
685.797	29.05504
685.992	33.84703
686.187	29.90991
686.382	39.94113
686.577	36.26091
686.773	39.87501
686.968	29.68123
687.163	35.50594
687.358	37.04193
687.553	39.09563
687.748	34.11862
687.943	29.97449
688.138	31.6647
688.333	29.02157
688.528	26.51458
688.723	28.24447
688.918	31.76571
689.112	36.68487
689.307	36.88314
689.502	35.87321
689.697	36.85024
689.892	36.488
690.087	32.84187
690.282	27.00852
690.476	24.46963
690.671	25.3471
690.866	28.96995
691.061	31.83978
691.255	29.19996
691.45	26.29597
691.645	21.276
691.84	26.48985
692.034	27.40205
692.229	23.65325
692.424	17.36485
692.618	16.02921
692.813	22.34573
693.007	23.54849
693.202	22.34383
693.397	23.35766
693.591	26.19461
693.786	27.17094
693.98	18.83131
694.175	20.62427
694.369	19.03084
694.564	22.4183
694.758	16.00014
694.953	18.14897
695.147	25.12345
695.342	30.72638
695.536	29.94504
695.73	21.04995
695.925	19.35759
696.119	21.11713
696.313	23.69079
696.508	18.93294
696.702	24.83334
696.896	24.21383
697.091	29.7559
697.285	28.41717
697.479	28.87594
697.673	23.8219
697.868	19.88298
698.062	22.61804
698.256	25.84626
698.45	19.81422
698.644	20.92119
698.839	24.89339
699.033	25.74151
699.227	24.76424
699.421	21.378
699.615	19.97591
699.809	15.60975
700.003	17.66201
700.197	24.37189
700.391	28.96616
700.585	24.6958
700.779	24.86129
700.973	25.15355
701.167	26.81549
701.361	27.20733
701.555	25.58047
701.749	26.81856
701.943	27.23984
702.137	25.77229
702.331	23.97933
702.525	26.00289
702.718	27.04734
702.912	30.20764
703.106	23.91817
703.3	30.27397
703.494	27.5065
703.687	34.18882
703.881	28.12252
704.075	28.19018
704.269	25.3529
704.462	30.46854
704.656	31.44265
704.85	31.11493
705.043	29.45638
705.237	26.42775
705.431	25.4507
705.624	23.46155
705.818	21.53768
706.012	26.09861
706.205	22.80726
706.399	30.17136
706.592	22.70819
706.786	31.47516
706.979	34.54046
707.173	34.77172
707.366	33.7251
707.56	30.23788
707.753	35.35018
707.947	34.63769
708.14	28.25036
708.333	26.26397
708.527	25.31633
708.72	26.81338
708.914	27.36929
709.107	24.85846
709.3	31.21625
709.494	23.16722
709.687	23.91965
709.88	21.1478
710.073	26.94749
710.267	25.87219
710.46	30.59427
710.653	29.78054
710.846	26.61928
711.04	27.8621
711.233	33.20446
711.426	39.06746
711.619	34.07748
711.812	36.06865
712.005	31.21648
712.198	30.20859
712.391	18.37839
712.585	18.28015
712.778	11.92679
712.971	16.71507
713.164	15.70671
713.357	20.4934
713.55	24.4367
713.743	22.5788
713.936	21.73139
714.129	22.05714
714.322	30.56001
714.514	34.80002
714.707	28.70869
714.9	25.32237
715.093	21.67231
715.286	23.69261
715.479	24.40722
715.672	23.10385
715.864	25.51116
716.057	22.80676
716.25	23.65102
716.443	24.30459
716.636	31.57348
716.828	35.8788
717.021	36.00968
717.214	34.17799
717.406	35.02295
717.599	40.49578
717.792	40.07766
717.984	39.06816
718.177	37.2123
718.37	36.78678
718.562	39.25926
718.755	33.06682
718.947	33.71812
719.14	29.97177
719.333	28.01834
719.525	25.34893
719.718	26.06508
719.91	31.14847
720.103	33.06475
720.295	31.86062
720.487	34.62455
720.68	31.63164
720.872	31.92421
721.065	27.2996
721.257	32.53897
721.449	34.75905
721.642	37.85835
721.834	36.2987
722.026	35.4176
722.219	37.43674
722.411	33.299
722.603	39.35203
722.796	32.64148
722.988	35.64248
723.18	32.25847
723.372	31.37802
723.565	29.58297
723.757	32.4493
723.949	35.93336
724.141	39.22681
724.333	29.64932
724.525	33.56248
724.717	35.18902
724.91	39.29385
725.102	34.49761
725.294	30.81954
725.486	30.46153
725.678	32.18965
725.87	28.0481
726.062	30.81267
726.254	30.58615
726.446	35.8951
726.638	29.44698
726.83	34.00928
727.022	27.78833
727.213	32.83922
727.405	29.677
727.597	32.24743
727.789	33.91175
727.981	27.98386
728.173	39.45076
728.365	34.27026
728.556	37.81649
728.748	35.17586
728.94	39.67004
729.132	39.61173
729.324	38.70432
729.515	41.5118
729.707	39.26018
729.899	41.04924
730.09	38.1435
730.282	34.29926
730.474	26.03003
730.665	23.881
730.857	31.34467
731.049	39.58552
731.24	46.32522
731.432	46.29437
731.623	43.1968
731.815	39.26017
732.006	39.35278
732.198	36.51796
732.389	28.95832
732.581	30.46177
732.772	27.53369
732.964	34.3407
733.155	34.30372
733.347	38.14731
733.538	37.07688
733.729	40.82881
733.921	37.4741
734.112	37.1808
734.304	30.00971
734.495	33.56012
734.686	29.48551
734.877	29.78227
735.069	26.42273
735.26	28.18101
735.451	28.85733
735.643	33.94404
735.834	32.21983
736.025	34.36857
736.216	30.19652
736.407	39.89935
736.599	39.90971
736.79	40.49833
736.981	32.71565
737.172	31.80131
737.363	24.50281
737.554	28.86634
737.745	29.87753
737.936	33.46083
738.127	36.45728
738.318	25.37648
738.509	27.3955
738.7	19.48521
738.891	28.41331
739.082	28.41373
739.273	29.06241
739.464	28.02116
739.655	24.43832
739.846	19.55175
740.037	18.05252
740.228	18.89949
740.419	24.20963
740.609	22.67568
740.8	23.94817
740.991	19.48442
741.182	18.53742
741.373	21.01438
741.563	23.75187
741.754	24.73297
741.945	25.22281
742.136	28.48092
742.326	28.67744
742.517	30.04298
742.708	28.54127
742.898	30.39734
743.089	28.11231
743.28	21.59741
743.47	20.06412
743.661	23.29756
743.851	29.39616
744.042	30.18036
744.233	22.97655
744.423	24.0151
744.614	25.41072
744.804	27.79248
744.995	27.69208
745.185	29.55721
745.376	26.39223
745.566	27.95984
745.756	24.4348
745.947	28.93404
746.137	25.25302
746.328	19.29369
746.518	18.4107
746.708	17.01013
746.899	22.35163
747.089	31.96624
747.279	34.01451
747.47	39.36414
747.66	31.57332
747.85	30.00901
748.04	23.74709
748.231	22.64354
748.421	24.8289
748.611	29.68953
748.801	32.2291
748.991	28.83994
749.182	21.27505
749.372	14.65985
749.562	21.60319
749.752	23.33114
749.942	23.98223
750.132	15.86582
750.322	15.6381
750.512	15.8661
750.702	18.83158
750.892	21.69924
751.082	26.19884
751.272	28.90414
751.462	31.70404
751.652	31.44532
751.842	29.42525
752.032	28.61272
752.222	30.03953
752.412	28.60263
752.602	31.01225
752.792	32.93803
752.981	36.84443
753.171	32.1893
753.361	31.95888
753.551	30.33602
753.741	31.53717
753.93	32.45271
754.12	28.05394
754.31	32.0313
754.5	33.78422
754.689	39.68387
754.879	35.31591
755.069	32.26029
755.258	26.39393
755.448	25.02625
755.638	24.1142
755.827	27.95684
756.017	28.08804
756.206	29.1004
756.396	28.80917
756.586	32.75369
756.775	28.73955
756.965	26.26118
757.154	19.09069
757.344	15.57402
757.533	18.54089
757.723	21.2114
757.912	23.58948
758.101	23.00524
758.291	22.48457
758.48	25.9382
758.67	26.84832
758.859	30.56215
759.048	27.98836
759.238	24.37229
759.427	15.38029
759.616	10.19981
759.806	14.07426
759.995	24.96079
760.184	29.71852
760.373	26.62528
760.563	23.91589
760.752	23.1029
760.941	26.26222
761.13	21.41
761.319	23.6212
761.509	24.63366
761.698	29.16013
761.887	28.09012
762.076	23.2657
762.265	28.28697
762.454	27.07707
762.643	34.04928
762.832	33.46013
763.021	33.69047
763.21	29.48516
763.399	30.10298
763.588	35.73785
763.777	37.10672
763.966	31.96052
764.155	21.30673
764.344	22.12173
764.533	16.87694
764.722	20.58896
764.911	20.39699
765.1	22.44798
765.288	27.14071
765.477	22.70657
765.666	30.00731
765.855	32.87292
766.044	36.81947
766.232	36.81796
766.421	32.19368
766.61	38.11848
766.799	37.7247
766.987	42.47985
767.176	35.02321
767.365	27.23887
767.553	22.0559
767.742	19.73988
767.931	24.43413
768.119	22.09194
768.308	22.35635
768.497	19.12768
768.685	20.43038
768.874	23.91316
769.062	17.59243
769.251	17.79008
769.439	13.75093
769.628	22.41886
769.816	21.11396
770.005	20.23282
770.193	20.26786
770.382	20.88901
770.57	22.03192
770.758	25.2264
770.947	21.51082
771.135	21.86758
771.323	16.52145
771.512	22.87971
771.7	16.68899
771.888	13.39639
772.077	13.65374
772.265	19.81273
772.453	18.15089
772.642	14.53413
772.83	14.07726
773.018	14.27268
773.206	17.92369
773.394	24.665
773.583	30.72921
773.771	24.40566
773.959	18.25316
774.147	16.13016
774.335	14.6312
774.523	16.29093
774.711	16.94648
774.899	18.93341
775.087	21.80065
775.275	21.7321
775.463	28.6468
775.651	26.39929
775.839	28.09594
776.027	23.30177
776.215	17.0798
776.403	16.94492
776.591	16.81459
776.779	22.1543
776.967	25.93801
777.155	26.61923
777.343	30.27708
777.531	23.10734
777.718	25.55521
777.906	20.6275
778.094	22.03071
778.282	17.36686
778.47	16.61747
778.657	18.99631
778.845	24.99281
779.033	29.06449
779.22	26.06481
779.408	26.00019
779.596	27.01173
779.783	31.83156
779.971	34.07894
780.159	36.38814
780.346	41.70194
780.534	42.3502
780.722	45.18519
780.909	45.47593
781.097	49.96732
781.284	51.78551
781.472	53.05393
781.659	60.25606
781.847	59.54047
782.034	54.94221
782.222	50.0874
782.409	49.14309
782.597	49.89346
782.784	44.25163
782.971	43.31472
783.159	42.63448
783.346	47.65729
783.533	49.01842
783.721	52.5978
783.908	48.58807
784.095	47.32022
784.283	50.31876
784.47	50.19535
784.657	49.54037
784.844	44.92092
785.032	45.47466
785.219	43.68696
785.406	47.2695
785.593	47.29855
785.78	50.72316
785.968	45.99779
786.155	47.98031
786.342	46.83086
786.529	49.82436
786.716	46.24964
786.903	42.57173
787.09	43.65589
787.277	42.35047
787.464	41.47243
787.651	36.12889
787.838	31.57228
788.025	28.64472
788.212	27.82677
788.399	28.47532
788.586	34.40508
788.773	30.46546
788.96	33.89606
789.147	26.40175
789.334	29.88679
789.521	20.10459
789.707	18.18448
789.894	13.29817
790.081	13.75549
790.268	16.03324
790.455	15.51008
790.641	15.37847
790.828	12.3486
791.015	11.86173
791.202	12.74127
791.388	13.94963
791.575	16.81809
791.762	12.87578
791.948	10.46202
792.135	4.9854
792.322	5.18072
792.508	6.61644
792.695	8.37724
792.881	10.17024
793.068	11.60366
793.254	12.54918
793.441	16.7837
793.627	17.50013
793.814	20.10848
794	15.38472
794.187	13.55914
794.373	11.79613
794.56	12.05682
794.746	10.59048
794.933	10.10401
795.119	14.40296
795.305	17.40554
795.492	12.38504
795.678	5.70711
795.864	5.05128
796.051	11.17868
796.237	13.91641
796.423	13.19948
796.61	9.12615
796.796	11.96271
796.982	8.7689
797.168	6.55187
797.355	2.99856
797.541	7.59329
797.727	17.17377
797.913	23.39532
798.099	21.83243
798.285	14.33781
798.471	3.58696
798.658	3.65178
798.844	4.75996
799.03	10.36447
799.216	1.79339
799.402	4.75695
799.588	7.26672
799.774	15.57583
799.96	15.18648
800.146	10.59092
800.332	8.66797
800.518	4.36619
800.704	6.61464
800.89	12.15893
801.075	8.18297
801.261	8.77089
801.447	5.60603
801.633	13.78751
801.819	14.69963
802.005	11.44141
802.19	11.44013
802.376	11.08149
802.562	14.4711
802.748	12.93994
802.934	12.51684
803.119	5.0847
803.305	1.89023
803.491	5.73763
803.676	12.51773
803.862	14.21267
804.048	8.0503
804.233	4.69321
804.419	9.9404
804.605	9.54942
804.79	10.95123
804.976	2.67291
805.161	8.05087
805.347	4.92155
805.532	9.45188
805.718	4.39976
805.903	13.2317
806.089	14.69781
806.274	16.97972
806.46	11.8309
806.645	7.39895
806.831	11.4408
807.016	12.74402
807.201	16.004
807.387	12.05834
807.572	11.47256
807.757	9.25557
807.943	14.86257
808.128	16.84941
808.313	17.46743
808.499	12.80735
808.684	12.15729
808.869	5.11804
809.054	5.08577
809.24	-3.22563
809.425	3.94618
809.61	-2.41082
809.795	-4.23711
809.98	-2.38098
810.165	-5.11694
810.35	2.90109
810.536	2.21701
810.721	8.5712
810.906	2.0865
811.091	-2.63926
811.276	2.05494
811.461	2.08747
811.646	3.65183
811.831	-4.13856
812.016	7.88793
812.201	8.76806
812.386	6.77825
812.571	1.52935
812.756	4.91975
812.941	6.25748
813.125	2.70557
813.31	1.33553
813.495	6.68155
813.68	11.21184
813.865	5.73645
814.05	8.40819
814.234	4.49731
814.419	7.07206
814.604	-1.0113
814.789	1.10627
814.973	3.06265
815.158	4.72542
815.343	3.25992
815.528	8.70209
815.712	6.4528
815.897	7.88635
816.081	3.58505
816.266	8.27929
816.451	12.354
816.635	10.2349
816.82	10.13761
817.004	9.81112
817.189	14.34165
817.374	16.68629
817.558	7.65718
817.743	0.94288
817.927	-2.64113
818.111	6.84457
818.296	15.77489
818.48	18.96953
818.665	17.69835
818.849	7.85566
819.034	7.23575
819.218	7.88894
819.402	17.24414
819.587	18.77293
819.771	11.24256
819.955	7.13223
820.14	7.65743
820.324	11.50328
820.508	6.58396
820.692	8.01623
820.877	3.32313
821.061	11.04755
821.245	10.5932
821.429	16.94813
821.613	17.86278
821.798	16.06969
821.982	16.85313
822.166	11.53859
822.35	7.88775
822.534	7.69076
822.718	12.74378
822.902	9.28897
823.086	2.51037
823.27	-0.06472
823.454	0.39121
823.638	1.92313
823.822	-3.81402
824.006	4.17225
824.19	7.00813
824.374	13.91819
824.558	12.41776
824.742	8.50739
824.926	10.52836
825.11	7.7586
825.294	11.70148
825.477	2.50971
825.661	4.95571
825.845	8.21514
826.029	13.10324
826.213	13.39665
826.396	10.822
826.58	9.84447
826.764	0.81315
826.948	-1.20825
827.131	-6.09741
827.315	-0.3597
827.499	-1.59818
827.682	4.85691
827.866	8.18153
828.05	11.01711
828.233	5.34478
828.417	7.23283
828.6	7.62409
828.784	7.85279
828.967	-0.65181
829.151	1.1089
829.335	6.38902
829.518	10.36513
829.701	9.09401
829.885	9.61656
830.068	12.12682
830.252	6.35686
830.435	4.43233
830.619	-1.53236
830.802	7.26891
830.985	7.20293
831.169	11.76492
831.352	6.28858
831.535	2.8999
831.719	3.71622
831.902	4.92213
832.085	8.76561
832.269	6.61409
832.452	4.10421
832.635	0.42351
832.818	3.12921
833.002	5.57365
833.185	6.12789
833.368	6.68363
833.551	3.62012
833.734	7.17277
833.917	0.45707
834.1	3.84752
834.284	7.92326
834.467	10.75797
834.65	9.48607
834.833	6.61627
835.016	9.19125
835.199	5.21371
835.382	6.25789
835.565	1.30339
835.748	2.6405
835.931	-0.32621
836.114	5.7701
836.297	7.56304
836.479	4.88988
836.662	4.76076
836.845	1.3705
837.028	3.52242
837.211	-1.33617
837.394	6.91121
837.577	6.1937
837.759	8.80114
837.942	6.94184
838.125	11.79738
838.308	15.25194
838.49	18.96336
838.673	13.91218
838.856	12.87104
839.039	5.08584
839.221	4.01008
839.404	1.30308
839.587	3.42224
839.769	7.62595
839.952	6.74621
840.134	11.83321
840.317	8.50962
840.499	7.9226
840.682	1.69452
840.865	-1.79307
841.047	0.45632
841.23	5.279
841.412	7.919
841.595	7.36424
841.777	3.03057
841.959	3.16119
842.142	2.15091
842.324	2.57435
842.507	2.28089
842.689	0.71684
842.871	-1.30335
843.054	1.46574
843.236	3.51918
843.418	5.7354
843.601	3.68347
843.783	-0.25942
843.965	-1.8244
844.147	2.41108
844.33	5.4741
844.512	10.23307
844.694	7.33435
844.876	8.70246
845.059	11.70237
845.241	7.20414
845.423	4.10848
845.605	-6.15793
845.787	0.78436
845.969	6.5825
846.151	12.35008
846.333	14.2068
846.515	9.77731
846.697	14.62894
846.879	13.03303
847.061	17.49707
847.243	18.47977
847.425	22.09646
847.607	25.2561
847.789	23.36454
847.971	23.36183
848.153	24.83062
848.335	26.94881
848.517	23.98636
848.699	27.04543
848.881	30.23819
849.062	32.77888
849.244	23.29905
849.426	18.02013
849.608	20.13751
849.789	25.51167
849.971	29.77676
850.153	25.4761
850.335	21.6656
850.516	18.11903
850.698	24.17911
850.88	27.33814
851.061	29.64679
851.243	24.33528
851.425	26.5203
851.606	27.20996
851.788	28.02504
851.969	26.69068
852.151	20.03989
852.333	19.48578
852.514	20.65351
852.696	28.31031
852.877	29.38569
853.059	31.53526
853.24	26.87068
853.422	24.46049
853.603	20.68301
853.784	21.11443
853.966	22.22099
854.147	22.45501
854.329	25.1216
854.51	29.94816
854.691	25.05695
854.873	21.93349
855.054	24.33959
855.235	29.5881
855.416	28.21874
855.598	19.2265
855.779	11.95822
855.96	8.56981
856.141	16.78254
856.323	18.60692
856.504	21.3776
856.685	11.37359
856.866	12.80612
857.047	13.84917
857.228	9.8734
857.409	8.76751
857.591	11.30832
857.772	15.31733
857.953	11.60226
858.134	3.91148
858.315	0.26099
858.496	8.99683
858.677	9.35529
858.858	10.07218
859.039	3.97584
859.22	6.87855
859.401	6.94378
859.582	0.58695
859.762	2.96356
859.943	3.84378
860.124	10.33224
860.305	3.71661
860.486	0.42457
860.667	2.11994
860.848	1.85916
861.028	7.59581
861.209	10.72403
861.39	11.93006
861.571	9.94111
861.751	2.77001
861.932	1.79216
862.113	6.39144
862.293	12.19093
862.474	15.80955
862.655	4.52759
862.835	1.20631
863.016	-1.72781
863.197	2.80408
863.377	1.89117
863.558	-0.09691
863.738	-1.92202
863.919	4.36647
864.099	9.61466
864.28	17.14095
864.46	6.12531
864.641	0.15971
864.821	-1.23932
865.002	3.78081
865.182	6.87737
865.363	7.20357
865.543	9.71348
865.723	13.69124
865.904	9.5192
866.084	8.73533
866.264	-2.24902
866.445	1.10836
866.625	-2.0852
866.805	2.24834
866.986	2.53993
867.166	0.61759
867.346	7.46307
867.526	0.7823
867.707	7.36226
867.887	2.83135
868.067	9.4797
868.247	6.38663
868.427	6.61478
868.607	3.65018
868.788	0.1304
868.968	-3.45435
869.148	-5.27924
869.328	-4.3014
869.508	0.09789
869.688	0.42337
869.868	4.36749
870.048	2.24916
870.228	3.29224
870.408	4.69544
870.588	2.0558
870.768	3.7508
870.948	0.26112
871.128	3.42224
871.307	5.34493
871.487	-1.33463
871.667	5.44524
871.847	7.36931
872.027	7.10615
872.207	3.29328
872.387	-2.11804
872.566	5.47611
872.746	6.15945
872.926	3.42141
873.106	9.35373
873.285	9.81101
873.465	14.86322
873.645	14.63694
873.824	15.41991
874.004	10.85592
874.184	1.07625
874.363	-3.35798
874.543	1.30381
874.723	7.4317
874.902	6.68197
875.082	9.35506
875.261	7.20269
875.441	4.07352
875.62	0.16169
875.8	-6.61768
875.979	-3.81434
876.159	-6.22629
876.338	1.95497
876.518	-0.1644
876.697	-4.59765
876.876	-1.37018
877.056	1.30328
877.235	7.04039
877.415	3.45375
877.594	3.48627
877.773	2.15009
877.953	0.65257
878.132	2.24977
878.311	-0.29317
878.49	-1.72789
878.67	-6.90976
878.849	-3.03048
879.028	-1.43302
879.207	7.30114
879.387	9.41996
879.566	9.41972
879.745	5.31321
879.924	1.92296
880.103	2.57542
880.282	5.44436
880.461	7.62916
880.64	1.20799
880.819	-0.78028
880.998	-0.35769
881.178	5.37848
881.357	7.78968
881.536	2.73733
881.715	2.37914
881.893	4.56422
882.072	11.47385
882.251	12.38692
882.43	5.63865
882.609	4.95564
882.788	-0.58601
882.967	1.53301
883.146	1.33757
883.325	10.69202
883.503	11.73504
883.682	12.48412
883.861	10.6269
884.04	7.49764
884.219	8.6387
884.397	4.33528
884.576	3.1943
884.755	1.2064
884.933	1.01107
885.112	10.07305
885.291	3.68331
885.469	1.72643
885.648	-4.10847
885.827	0.71662
886.005	0.71769
886.184	-4.62897
886.363	-1.98768
886.541	1.30494
886.72	8.8929
886.898	7.32737
887.077	7.1965
887.255	4.82516
887.434	4.17218
887.612	-1.27331
887.791	1.00801
887.969	6.8445
888.147	14.57152
888.326	8.47632
888.504	9.22272
888.682	10.29903
888.861	13.26503
889.039	8.60522
889.218	12.45154
889.396	10.9194
889.574	7.52985
889.752	-1.1736
889.931	-2.5746
890.109	-0.71649
890.287	2.80375
890.465	2.31335
890.643	1.23749
890.822	-1.27253
891	4.59502
891.178	8.83425
891.356	8.76917
891.534	14.50707
891.712	9.97453
891.89	14.57146
892.068	6.35708
892.247	10.72546
892.425	5.93306
892.603	6.06337
892.781	3.61819
892.959	-2.63886
893.137	0.91365
893.314	-0.58578
893.492	9.77858
893.67	4.98752
893.848	8.11572
894.026	5.40957
894.204	5.86591
894.382	7.7916
894.56	5.37993
894.738	0.84796
894.915	-4.33635
895.093	4.49483
895.271	8.37477
895.449	11.73091
895.626	9.32243
895.804	8.76837
895.982	8.93278
896.16	10.52899
896.337	10.59406
896.515	7.20395
896.693	-4.98615
896.87	-5.86696
897.048	-10.59333
897.225	-3.35855
897.403	-3.48852
897.581	3.48578
897.758	2.63887
897.936	8.24558
898.113	0.45637
898.291	4.10663
898.468	1.72721
898.646	7.78971
898.823	-0.81574
899.001	2.44345
899.178	-1.07637
899.356	3.6181
899.533	1.27176
899.71	10.10633
899.888	11.66944
900.065	13.69194
900.242	12.15919
900.42	10.62885
900.597	12.51524
900.774	8.0492
900.952	8.73424
901.129	3.19552
901.306	7.5619
901.483	8.18027
901.661	14.82831
901.838	15.87295
902.015	17.86166
902.192	11.27888
902.369	5.41131
902.546	-1.98831
902.723	-0.26094
902.901	-1.04328
903.078	-1.59708
903.255	-4.33517
903.432	1.43308
903.609	4.07316
903.786	8.57257
903.963	2.67417
904.14	2.96746
904.317	-0.22789
904.494	-2.02128
904.671	4.27171
904.848	5.9996
905.024	6.26047
905.201	2.6729
905.378	6.87654
905.555	8.50662
905.732	3.64908
905.909	-8.17862
906.086	-7.07011
906.262	1.53354
906.439	11.83275
906.616	15.22222
906.793	9.91189
906.969	10.95239
907.146	9.74687
907.323	6.94302
907.5	0.58668
907.676	1.40113
907.853	1.72742
908.03	4.40015
908.206	5.67268
908.383	11.27893
908.559	12.22432
908.736	4.66083
908.912	-1.1414
909.089	-2.25113
909.266	3.38865
909.442	5.21437
909.619	6.58504
909.795	3.2923
909.972	-0.42363
910.148	1.04328
910.324	3.19484
910.501	10.69362
910.677	6.06497
910.854	5.60833
911.03	3.45541
911.206	4.13936
911.383	-3.49023
911.559	-4.76173
911.735	-8.6402
911.912	-5.96584
912.088	-7.13908
912.264	-1.4359
912.44	7.72372
912.617	13.42762
912.793	9.38687
912.969	5.54102
913.145	-1.33635
913.321	6.22473
913.498	2.54162
913.674	8.93051
913.85	-1.79185
914.026	-1.46557
914.202	-7.36576
914.378	-0.22825
914.554	3.84515
914.73	-1.95585
914.906	-4.46542
915.082	-7.13766
915.258	2.0217
915.434	7.00749
915.61	8.86596
915.786	15.05712
915.962	14.11455
916.138	10.33201
916.314	-1.89057
916.49	-5.67299
916.665	-0.26024
916.841	1.63051
917.017	-2.11801
917.193	-3.91172
917.369	-2.67258
917.545	8.76877
917.72	4.75894
917.896	6.38839
918.072	-6.3571
918.247	1.56355
918.423	0.19443
918.599	12.4511
918.775	8.89925
918.95	7.92271
919.126	-4.39828
919.301	-1.72688
919.477	-1.14166
919.653	7.7235
919.828	3.94343
920.004	4.72614
920.179	5.43679
920.355	5.82781
920.53	8.69646
920.706	4.66128
920.881	0.0654
921.057	-3.48784
921.232	-1.88982
921.408	2.5761
921.583	4.95558
921.759	2.70568
921.934	-0.78286
922.109	-1.01114
922.285	1.69501
922.46	2.83589
922.635	3.97718
922.811	-3.19559
922.986	1.62877
923.161	2.57359
923.336	5.50889
923.512	3.84634
923.687	-1.20629
923.862	-1.76031
924.037	0.16198
924.212	3.22642
924.388	3.32313
924.563	-2.83581
924.738	-7.95466
924.913	-8.11735
925.088	-12.7468
925.263	-4.49804
925.438	0.65177
925.613	10.10521
925.788	5.47584
925.963	3.19472
926.138	-2.37924
926.313	0.2944
926.488	-1.69424
926.663	0.16426
926.838	-1.92262
927.013	-0.06441
927.188	1.36924
927.363	6.5195
927.538	2.77048
927.713	2.11844
927.888	2.54321
928.062	5.80301
928.237	5.21611
928.412	0.22783
928.587	3.06347
928.761	6.97452
928.936	5.60525
929.111	2.9327
929.286	2.4123
929.46	2.18419
929.635	2.44513
929.81	-1.40171
929.984	-5.02035
930.159	-2.67278
930.334	1.07621
930.508	3.94509
930.683	4.62908
930.857	2.21652
931.032	4.46603
931.206	-1.01059
931.381	-1.63009
931.556	0.87881
931.73	9.61778
931.904	11.8342
932.079	5.74041
932.253	-1.49894
932.428	1.82563
932.602	6.09502
932.777	11.60457
932.951	4.53212
933.125	1.59845
933.3	-3.12892
933.474	4.04325
933.648	5.64029
933.823	5.83575
933.997	-0.00007
934.171	-0.3586
934.345	-3.61788
934.52	-2.67275
934.694	2.5435
934.868	6.42293
935.042	6.74893
935.217	2.86935
935.391	-1.62964
935.565	0.81412
935.739	-1.89115
935.913	0.06501
936.087	1.50039
936.261	4.20566
936.435	8.8339
936.609	4.20488
936.783	6.32378
936.957	5.21565
937.131	4.36828
937.305	0.22795
937.479	-4.23832
937.653	-4.82492
937.827	-1.14193
938.001	2.80326
938.175	1.62949
938.349	-1.30357
938.523	-5.99772
938.697	-4.36751
938.87	-5.60604
939.044	-2.5095
939.218	2.41013
939.392	7.30063
939.566	5.86626
939.739	-3.25966
939.913	-6.09652
940.087	-1.7941
940.261	6.06309
940.434	2.31412
940.608	-4.8885
940.782	-8.11582
940.955	-9.25624
941.129	-5.96476
941.302	-8.4757
941.476	-2.41257
941.65	-7.36766
941.823	-4.72652
941.997	-2.9997
942.17	0.35724
942.344	5.18127
942.517	4.62824
942.691	0.39147
942.864	0.68502
943.038	-4.53116
943.211	7.82301
943.385	-2.86516
943.558	-7.12878
943.731	-13.97388
943.905	-11.76193
944.078	-9.29049
944.251	-7.1064
944.425	-1.79207
944.598	2.6405
944.771	1.40154
944.945	0.68466
945.118	0.39116
945.291	2.44519
945.464	1.95621
945.638	1.01107
945.811	-1.20588
945.984	-2.901
946.157	-1.59714
946.33	-5.11793
946.503	3.78088
946.677	6.06297
946.85	14.50586
947.023	6.42211
947.196	6.6181
947.369	3.42388
947.542	5.4122
947.715	4.43336
947.888	2.44472
948.061	2.24914
948.234	5.50761
948.407	10.13651
948.58	8.21354
948.753	2.28228
948.926	2.28275
949.099	2.73897
949.271	8.21392
949.444	2.73644
949.617	4.23581
949.79	-2.70615
949.963	1.46672
950.136	7.30002
950.308	8.92999
950.481	6.38738
950.654	0.74978
950.827	5.28101
950.999	6.06325
951.172	5.80244
951.345	6.6143
951.517	5.70185
951.69	8.27663
951.863	3.87889
952.035	8.67029
952.208	7.92144
952.381	9.32286
952.553	9.06143
952.726	1.79048
952.898	-0.09998
953.071	-3.1313
953.243	-0.22982
953.416	-2.67336
953.588	-5.28079
953.761	-3.94343
953.933	-5.37944
954.106	-1.56613
954.278	-1.82696
954.45	-0.36014
954.623	-3.19511
954.795	-2.77121
954.967	-1.10824
955.14	3.94448
955.312	1.14054
955.484	2.5096
955.657	-4.01015
955.829	3.09578
956.001	1.792
956.173	7.00828
956.346	4.69534
956.518	5.08634
956.69	2.05431
956.862	-1.17308
957.034	2.44568
957.207	-5.18125
957.379	-2.31309
957.551	-7.85515
957.723	2.21714
957.895	5.37848
958.067	5.73704
958.239	5.14945
958.411	4.3017
958.583	6.74648
958.755	1.17149
958.927	-4.10827
959.099	-1.27273
959.271	1.5643
959.443	3.84605
959.615	1.59694
959.787	1.20566
959.959	-0.06591
960.13	-2.51051
960.302	-2.64083
960.474	-2.1518
960.646	-1.01059
960.818	4.40231
960.99	4.98921
961.161	5.99977
961.333	2.02139
961.505	5.93242
961.677	2.73864
961.848	3.74929
962.02	0.19694
962.192	3.32535
962.363	8.11457
962.535	4.62585
962.707	4.95202
962.878	-0.94574
963.05	5.90088
963.221	5.77055
963.393	2.15319
963.564	-0.29213
963.736	-5.18222
963.907	-4.26993
964.079	-4.59653
964.25	1.82572
964.422	12.9081
964.593	8.4433
964.765	6.29161
964.936	-2.73777
965.108	-4.4336
965.279	0.32498
965.45	-1.95792
965.622	6.51759
965.793	3.38887
965.964	10.49802
966.136	11.05134
966.307	8.93259
966.478	4.6279
966.65	3.195
966.821	7.82392
966.992	6.87869
967.163	3.48813
967.334	-2.64058
967.506	2.54236
967.677	8.44214
967.848	6.87783
968.019	7.27016
968.19	-0.7163
968.361	1.66314
968.532	-2.41253
968.703	-0.84743
968.874	-0.94513
969.045	-4.07494
969.216	-1.62979
969.387	0.00014
969.558	6.55138
969.729	3.71469
969.9	-2.60701
970.071	-7.78887
970.242	-5.60459
970.413	0.71714
970.584	4.72654
970.755	0.78253
970.926	-2.28129
971.097	-6.2254
971.267	0.62063
971.438	4.92304
971.609	6.78043
971.78	6.55212
971.951	-1.66134
972.121	0.81683
972.292	-2.15012
972.463	4.07492
972.633	1.69517
972.804	3.12911
972.975	8.05101
973.145	6.77962
973.316	8.47545
973.487	4.23795
973.657	10.66185
973.828	5.64118
973.998	3.97868
974.169	-4.17302
974.339	-4.36814
974.51	-3.74853
974.68	-4.88948
974.851	4.10897
975.021	8.86786
975.192	16.52768
975.362	10.29981
975.533	5.01934
975.703	-0.26064
975.874	-0.26024
976.044	0.68502
976.214	0.03296
976.385	-2.64064
976.555	-0.22822
976.725	-5.63824
976.896	-6.68208
977.066	-8.31247
977.236	-1.46813
977.406	1.36877
977.577	2.3135
977.747	0.03203
977.917	3.52029
978.087	3.97695
978.257	11.8329
978.427	6.81292
978.598	4.98809
978.768	0.8477
978.938	1.14104
979.108	4.65968
979.278	5.08427
979.448	7.62626
979.618	5.67208
979.788	2.08594
979.958	-3.7482
980.128	-2.93289
980.298	-0.651
980.468	1.98932
980.638	1.07694
980.808	-3.97539
980.978	1.14235
981.148	-0.39028
981.317	4.79246
981.487	5.57469
981.657	-2.05421
981.827	-2.54336
981.997	-10.59658
982.167	-5.24974
982.336	-7.85778
982.506	-3.55358
982.676	0.52056
982.846	1.4337
983.015	3.16207
983.185	3.71551
983.355	3.51978
983.524	-2.38188
983.694	-4.69483
983.864	-4.10829
984.033	-1.50006
984.203	-4.66264
984.372	-5.99921
984.542	-6.25949
984.712	-2.90124
984.881	0.19563
985.051	-3.71568
985.22	-4.43285
985.39	-8.44229
985.559	-9.61551
985.728	-3.32363
985.898	-0.6506
986.067	-3.22689
986.237	-10.49639
986.406	-12.5504
986.576	-0.09712
986.745	3.06473
986.914	7.13909
987.084	10.33454
987.253	12.74673
987.422	9.2265
987.591	1.23838
987.761	-4.20557
987.93	-5.67101
988.099	-0.35697
988.268	-2.96439
988.438	3.32578
988.607	3.35647
988.776	3.68247
988.945	0.48795
989.114	-2.83558
989.283	6.77984
989.452	10.49527
989.621	10.5604
989.791	-1.99011
989.96	-2.70701
990.129	2.60677
990.298	11.27845
990.467	6.19304
990.636	4.56317
990.805	-0.6845
990.974	7.66313
991.142	1.86094
991.311	2.7093
991.48	-2.14982
991.649	0.0663
991.818	3.19463
991.987	3.35768
992.156	13.10357
992.325	10.49572
992.493	15.62577
992.662	5.45607
992.831	3.27388
993	1.89241
993.168	-0.81375
993.337	2.08541
993.506	-5.99921
993.675	2.54029
993.843	7.36561
994.012	13.2001
994.181	6.22571
994.349	1.13935
994.518	4.30297
994.686	2.9671
994.855	0.94622
995.024	-5.76931
995.192	-7.46531
995.361	-2.77148
995.529	-5.34636
995.698	-1.66238
995.866	-7.13843
996.035	-4.7266
996.203	-3.87884
996.371	2.28181
996.54	4.72601
996.708	4.53014
996.877	0.09635
997.045	-9.97495
997.213	-11.63749
997.382	-2.77216
997.55	7.29913
997.718	8.01655
997.887	3.09675
998.055	3.74874
998.223	2.80343
998.391	2.18398
998.56	7.43012
998.728	9.48366
998.896	10.23369
999.064	2.57587
999.232	4.40103
999.401	5.99711
999.569	5.99699
999.737	0.71623
999.905	-2.44508
1000.073	-5.3133
1000.241	-4.59636
1000.409	-5.90009
1000.577	-3.91196
1000.745	2.28245
1000.913	6.32338
1001.081	10.46365
1001.249	7.69198
1001.417	2.24834
1001.585	3.29063
1001.753	3.84555
1001.921	3.16153
1002.089	-0.39117
1002.256	0.09766
1002.424	0.55462
1002.592	0.39172
1002.76	-0.78229
1002.928	6.78199
1003.096	7.43377
1003.263	0.10074
1003.431	-1.8886
1003.599	-4.17029
1003.767	1.01158
1003.934	1.20697
1004.102	6.0623
1004.27	8.21348
1004.437	3.77908
1004.605	-2.93308
1004.773	-3.55213
1004.94	1.53418
1005.108	5.41205
1005.275	2.93457
1005.443	-0.7498
1005.61	-7.92084
1005.778	-1.69479
1005.945	-3.52087
1006.113	3.25887
1006.28	-0.52226
1006.448	5.11873
1006.615	2.08763
1006.783	2.44612
1006.95	-2.37923
1007.118	-3.35837
1007.285	-5.54207
1007.452	-6.81335
1007.62	-1.14076
1007.787	-2.34723
1007.954	0.97746
1008.122	-2.6403
1008.289	2.51103
1008.456	4.27164
1008.623	4.36916
1008.791	-0.09736
1008.958	-4.20482
1009.125	-8.11537
1009.292	-4.3674
1009.459	-6.65051
1009.627	-4.98925
1009.794	-11.44182
1009.961	-8.63701
1010.128	-2.83479
1010.295	2.64074
1010.462	3.45561
1010.629	0.03316
1010.796	-5.05266
1010.963	-6.35676
1011.13	-7.0742
1011.297	-4.17285
1011.464	-8.0523
1011.631	-8.14981
1011.798	-7.23703
1011.965	-2.3143
1012.132	3.58515
1012.299	7.82139
1012.466	10.16826
1012.633	3.844
1012.799	3.51904
1012.966	1.59608
1013.133	1.89102
1013.3	-0.35749
1013.467	-2.11801
1013.633	-1.23829
1013.8	0.42415
1013.967	2.2822
1014.134	0.19612
1014.3	-3.0965
1014.467	-1.33617
1014.634	-1.92333
1014.8	0.09693
1014.967	-3.81474
1015.134	0.87938
1015.3	4.01014
1015.467	9.91095
1015.633	16.07118
1015.8	9.61565
1015.966	0.58503
1016.133	-3.32778
1016.3	4.7926
1016.466	10.36705
1016.632	9.61922
1016.799	-0.71664
1016.965	-6.55211
1017.132	-4.76034
1017.298	0.6504
1017.465	1.69575
1017.631	-2.96486
1017.797	-1.72621
1017.964	4.7586
1018.13	8.66944
1018.296	6.61587
1018.463	7.07238
1018.629	9.81271
1018.795	7.56342
1018.961	0.62113
1019.128	-5.76913
1019.294	-5.73689
1019.46	-0.42376
1019.626	0.03253
1019.792	6.61646
1019.959	8.44285
1020.125	6.16143
1020.291	2.83836
1020.457	3.71613
1020.623	6.09535
1020.789	8.18142
1020.955	1.82631
1021.121	4.46549
1021.287	-0.71801
1021.453	1.53095
1021.619	3.91281
1021.785	2.05485
1021.951	3.09819
1022.117	-2.93314
1022.283	-1.30316
1022.449	1.20695
1022.615	2.80363
1022.781	2.70589
1022.946	-7.72615
1023.112	-10.56053
1023.278	-7.75731
1023.444	-1.0091
1023.61	6.45548
1023.775	5.47738
1023.941	-0.13214
1024.107	-4.14261
1024.273	-0.91391
1024.438	5.51039
1024.604	10.29147
1024.77	2.43572
1024.935	1.39267
1025.101	1.5986
1025.267	5.18253
1025.432	9.97566
1025.598	3.32625
1025.763	4.27158
1025.929	1.33675
1026.095	-0.45595
1026.26	-4.82606
1026.426	-5.70652
1026.591	-7.01072
1026.757	-4.00956
1026.922	-2.67299
1027.087	-1.66282
1027.253	-1.56514
1027.418	4.23397
1027.584	3.90749
1027.749	8.86172
1027.914	7.53081
1028.08	11.67189
1028.245	4.82742
1028.41	3.84767
1028.576	1.43503
1028.741	8.11638
1028.906	6.55074
1029.072	4.75783
1029.237	0.16222
1029.402	-5.89922
1029.567	-4.62803
1029.732	-1.46583
1029.898	5.31309
1030.063	3.55266
1030.228	-0.09792
1030.393	-0.81625
1030.558	5.18246
1030.723	4.43212
1030.888	-0.29321
1031.053	-2.8687
1031.218	-1.43417
1031.383	5.44223
1031.548	6.19226
1031.713	4.13846
1031.878	-4.9556
1032.043	-5.28205
1032.208	4.36857
1032.373	10.56239
1032.538	19.00436
1032.703	10.52787
1032.868	10.13927
1033.033	-4.23473
1033.198	-5.50685
1033.362	-7.79038
1033.527	-6.77969
1033.692	-1.46628
1033.857	-3.58497
1034.021	0.71717
1034.186	-0.19525
1034.351	1.14102
1034.516	1.59739
1034.68	-2.57519
1034.845	-0.81535
1035.01	3.74919
1035.174	8.01933
1035.339	4.69497
1035.504	2.2487
1035.668	5.80337
1035.833	5.63994
1035.997	6.09667
1036.162	3.619
1036.326	0.61937
1036.491	-3.58528
1036.655	-10.53028
1036.82	-3.55353
1036.984	-0.48997
1037.149	3.74823
1037.313	0.94512
1037.478	-0.61926
1037.642	6.68281
1037.807	7.72571
1037.971	7.82346
1038.135	2.54255
1038.3	2.99876
1038.464	7.10647
1038.628	5.21563
1038.792	11.37732
1038.957	9.02943
1039.121	6.58464
1039.285	-0.68512
1039.449	1.40093
1039.614	1.8242
1039.778	-2.76989
1039.942	-7.85412
1040.106	-5.6044
1040.27	-1.8252
1040.434	2.02138
1040.599	4.85856
1040.763	8.51044
1040.927	9.87946
1041.091	3.06444
1041.255	1.40082
1041.419	-2.08734
1041.583	5.80013
1041.747	5.99567
1041.911	8.5373
1042.075	1.98687
1042.239	-1.07671
1042.403	-1.53302
1042.567	4.17148
1042.731	4.82289
1042.894	2.67203
1043.058	2.96638
1043.222	0.91426
1043.386	-4.59467
1043.55	-10.72301
1043.714	-0.48844
1043.877	5.70535
1044.041	8.34526
1044.205	0.55363
1044.369	2.7387
1044.532	0.78333
1044.696	3.45715
1044.86	1.01065
1045.023	3.65027
1045.187	-0.2942
1045.351	3.52135
1045.514	3.13049
1045.678	7.07471
1045.841	3.11323
