Data from H2O_Subt9__2__00042.txt Node

Date: Tue Nov 04 10:20:30 EST 2025
User: brett
Spectrometer: USB4F03499
Trigger mode: 4
Integration Time (sec): 3.000000E-2
Scans to average: 15
Electric dark correction enabled: true
Nonlinearity correction enabled: true
Boxcar width: 1
XAxis mode: Wavelengths
Number of Pixels in Spectrum: 3648
>>>>>Begin Spectral Data<<<<<
345.386	10.10973
345.605	10.10973
345.824	7.92541
346.044	2.41362
346.263	-7.04189
346.482	-9.61829
346.701	-3.8138
346.92	3.06508
347.139	5.28155
347.358	-1.88829
347.577	1.82921
347.796	2.51398
348.015	9.45504
348.234	8.05177
348.453	0.32538
348.672	-3.74962
348.891	-8.93216
349.11	5.83362
349.329	9.90767
349.548	17.14105
349.767	17.3403
349.986	23.66015
350.205	24.80512
350.424	24.90167
350.643	22.49401
350.862	15.87585
351.08	12.44912
351.299	7.78773
351.518	11.50324
351.737	12.05702
351.956	13.42576
352.174	18.54144
352.393	18.51132
352.612	26.45645
352.831	29.49065
353.049	37.79529
353.268	34.83314
353.487	35.58225
353.705	33.75974
353.924	34.41156
354.143	38.83553
354.361	38.86701
354.58	42.55067
354.798	39.94292
355.017	41.63771
355.236	37.8587
355.454	31.11744
355.673	28.08576
355.891	24.82706
356.11	30.07173
356.328	30.43269
356.547	38.02028
356.765	39.09512
356.984	38.90015
357.202	38.28261
357.42	39.77821
357.639	46.18525
357.857	51.06214
358.076	50.99811
358.294	56.6072
358.512	56.7419
358.731	61.71882
358.949	55.3942
359.167	57.40138
359.386	55.74602
359.604	52.29012
359.822	53.57327
360.04	55.06545
360.259	59.26753
360.477	57.37724
360.695	56.59209
360.913	62.45847
361.131	60.47045
361.35	57.92913
361.568	51.25523
361.786	53.84903
362.004	56.46546
362.222	57.43986
362.44	54.06929
362.658	51.75025
362.876	49.69912
363.094	53.08439
363.312	59.30688
363.53	60.18384
363.749	53.08426
363.967	51.4227
364.184	52.36359
364.402	62.68533
364.62	56.92693
364.838	52.01765
365.056	40.71391
365.274	39.63421
365.492	38.33205
365.71	38.78841
365.928	35.01626
366.146	34.4289
366.364	34.33848
366.581	34.17458
366.799	38.64104
367.017	34.57258
367.235	27.40622
367.453	23.16805
367.67	20.36489
367.888	27.49691
368.106	26.60927
368.323	33.67291
368.541	26.47388
368.759	27.10332
368.977	25.08738
369.194	30.04358
369.412	27.3732
369.629	24.0458
369.847	21.01284
370.065	23.58647
370.282	28.86415
370.5	33.16428
370.717	25.11607
370.935	24.6281
371.152	25.79927
371.37	33.9089
371.588	28.04814
371.805	32.15433
372.022	26.42155
372.24	33.58692
372.457	27.23311
372.675	40.79113
372.892	35.41494
373.11	36.39238
373.327	32.41585
373.544	38.0846
373.762	39.48442
373.979	39.54247
374.196	34.39711
374.414	36.18984
374.631	40.06813
374.848	42.96451
375.066	43.84495
375.283	34.89015
375.5	36.19314
375.717	36.68359
375.935	37.5613
376.152	41.3309
376.369	40.28643
376.586	46.43279
376.803	47.74277
377.02	52.26816
377.238	56.11767
377.455	49.86306
377.672	47.45602
377.889	42.40919
378.106	48.76509
378.323	51.37126
378.54	50.29328
378.757	45.89261
378.974	46.73361
379.191	48.46544
379.408	45.92757
379.625	35.86342
379.842	38.50455
380.059	47.55526
380.276	54.6925
380.493	50.51455
380.71	48.00414
380.927	43.1133
381.143	52.26585
381.36	48.97472
381.577	61.61294
381.794	56.52584
382.011	58.57413
382.228	50.29694
382.444	48.123
382.661	46.79997
382.878	48.04534
383.095	50.09263
383.311	54.19278
383.528	52.76259
383.745	49.83868
383.962	49.05802
384.178	49.60818
384.395	51.07116
384.612	49.11243
384.828	48.36217
385.045	46.76338
385.261	44.00091
385.478	47.32116
385.695	44.16358
385.911	45.16961
386.128	45.01088
386.344	45.66733
386.561	47.00254
386.777	47.71458
386.994	55.7844
387.21	53.60657
387.427	53.96866
387.643	53.12611
387.86	58.65887
388.076	60.35473
388.292	52.40189
388.509	47.78168
388.725	41.03182
388.942	47.25657
389.158	42.59636
389.374	40.96961
389.591	37.84555
389.807	46.73137
390.023	52.37065
390.239	49.37846
390.456	41.30384
390.672	37.8867
390.888	39.92944
391.104	40.48684
391.321	40.68045
391.537	37.75644
391.753	37.97942
391.969	37.80917
392.185	45.68705
392.401	52.40149
392.618	59.66603
392.834	56.01731
393.05	60.88846
393.266	54.14452
393.482	51.08362
393.698	42.10442
393.914	46.95647
394.13	58.51693
394.346	64.08055
394.562	59.56353
394.778	49.59955
394.994	50.15765
395.21	49.43371
395.426	52.56298
395.642	47.39272
395.858	46.48417
396.073	45.43995
396.289	51.55469
396.505	50.57715
396.721	51.81874
396.937	45.50486
397.153	44.95156
397.369	48.7613
397.584	47.32889
397.8	49.08213
398.016	43.37815
398.232	46.69409
398.447	51.32758
398.663	51.69034
398.879	49.05702
399.094	47.64945
399.31	50.18326
399.526	49.72647
399.741	46.11746
399.957	43.97534
400.173	46.19035
400.388	49.41378
400.604	49.40546
400.82	48.42715
401.035	50.18433
401.251	44.91583
401.466	48.73388
401.682	48.43549
401.897	50.35481
402.113	47.54972
402.328	42.90055
402.544	44.95018
402.759	40.97729
402.974	41.68767
403.19	43.5511
403.405	45.60076
403.621	37.06806
403.836	33.94014
404.051	34.4684
404.267	48.08162
404.482	46.83962
404.697	44.42519
404.913	40.32488
405.128	41.59601
405.343	43.29327
405.559	40.13589
405.774	41.11432
405.989	44.75267
406.204	48.07481
406.42	49.99531
406.635	52.83088
406.85	53.11784
407.065	46.76796
407.28	41.7251
407.495	43.97768
407.71	48.82712
407.926	49.51062
408.141	47.38711
408.356	46.31422
408.571	43.51296
408.786	39.83968
409.001	42.7412
409.216	45.96604
409.431	48.98994
409.646	52.27869
409.861	45.46819
410.076	51.04206
410.291	45.17799
410.506	49.74344
410.721	46.45082
410.936	48.3439
411.15	48.98789
411.365	44.32853
411.58	46.57326
411.795	51.36353
412.01	52.7359
412.225	57.16765
412.439	60.38492
412.654	67.47863
412.869	64.18633
413.084	58.94896
413.299	57.1637
413.513	53.45048
413.728	51.29549
413.943	47.31861
414.157	42.78932
414.372	43.01768
414.587	47.2787
414.801	52.7787
415.016	53.5978
415.231	49.96245
415.445	46.2855
415.66	41.43523
415.874	40.68158
416.089	40.4251
416.304	45.3717
416.518	48.79627
416.733	50.16154
416.947	49.80105
417.162	42.92205
417.376	39.85845
417.59	42.9196
417.805	47.71021
418.019	49.1124
418.234	47.55709
418.448	48.04256
418.663	58.47002
418.877	56.4506
419.091	56.41367
419.306	50.74129
419.52	52.23515
419.734	54.87241
419.949	52.59399
420.163	54.35472
420.377	49.40925
420.591	46.28032
420.806	38.33364
421.02	39.21488
421.234	41.59095
421.448	47.45337
421.663	51.65667
421.877	51.63009
422.091	49.12198
422.305	46.38245
422.519	47.97499
422.733	51.81524
422.947	48.88791
423.161	49.89303
423.376	50.57525
423.59	52.59459
423.804	46.86547
424.018	43.31203
424.232	40.47533
424.446	47.27971
424.66	53.21792
424.874	50.52242
425.088	48.06638
425.302	44.22021
425.515	47.50034
425.729	50.48108
425.943	50.54534
426.157	48.81725
426.371	46.04315
426.585	39.91853
426.799	46.76423
427.013	47.87623
427.226	53.18782
427.44	54.12763
427.654	51.22566
427.868	51.51581
428.081	44.12618
428.295	45.46807
428.509	43.02833
428.723	41.85316
428.936	42.47298
429.15	36.67338
429.364	36.77782
429.577	36.09265
429.791	40.19703
430.005	43.06045
430.218	41.24103
430.432	42.47939
430.645	33.94615
430.859	32.83579
431.073	32.67334
431.286	43.2634
431.5	50.35752
431.713	50.48937
431.927	50.84557
432.14	47.36435
432.354	45.44534
432.567	40.03912
432.781	35.80392
432.994	38.727
433.207	46.02179
433.421	48.27048
433.634	49.15044
433.848	39.47641
434.061	43.0197
434.274	38.88901
434.488	39.6027
434.701	36.67681
434.914	38.49894
435.127	43.67738
435.341	39.54351
435.554	37.94653
435.767	41.27198
435.98	44.29909
436.194	48.47235
436.407	45.08716
436.62	48.86879
436.833	52.96628
437.046	55.86515
437.259	50.77608
437.473	45.5082
437.686	44.29727
437.899	49.86591
438.112	50.93723
438.325	49.66628
438.538	47.94663
438.751	57.34752
438.964	66.30099
439.177	65.83856
439.39	59.65593
439.603	57.317
439.816	60.80142
440.029	59.68837
440.242	56.94437
440.455	57.30806
440.668	61.22135
440.881	59.27711
441.094	64.34805
441.306	69.16292
441.519	80.2521
441.732	76.12049
441.945	71.23391
442.158	61.66794
442.37	64.44184
442.583	68.49527
442.796	72.81682
443.009	70.30176
443.222	63.68487
443.434	61.87158
443.647	56.66249
443.86	56.79131
444.072	56.49975
444.285	56.95389
444.498	55.65521
444.71	51.26348
444.923	54.45448
445.136	50.60789
445.348	56.27531
445.561	58.69403
445.773	61.79048
445.986	62.53517
446.198	61.78778
446.411	65.62971
446.623	61.03682
446.836	61.78709
447.048	64.27875
447.261	63.39444
447.473	58.62607
447.686	53.97919
447.898	56.94209
448.11	73.64223
448.323	72.73414
448.535	64.62904
448.748	47.51427
448.96	41.09919
449.172	44.19513
449.385	46.92826
449.597	49.633
449.809	48.23287
450.021	49.59822
450.234	51.70956
450.446	53.78977
450.658	58.09816
450.87	59.72193
451.083	59.45892
451.295	56.58001
451.507	54.9299
451.719	61.01989
451.931	58.83665
452.143	66.52024
452.356	67.75661
452.568	74.71765
452.78	75.00583
452.992	77.53736
453.204	73.70078
453.416	69.98537
453.628	71.10209
453.84	72.47115
454.052	77.52228
454.264	74.13149
454.476	77.13001
454.688	78.33054
454.9	83.01994
455.112	77.64253
455.324	77.74665
455.536	75.0493
455.747	76.6407
455.959	78.34926
456.171	75.97504
456.383	75.6173
456.595	73.86681
456.807	80.27528
457.018	82.7874
457.23	79.00812
457.442	78.73541
457.654	74.99044
457.865	75.37248
458.077	70.69708
458.289	73.46771
458.501	79.02073
458.712	85.95904
458.924	88.49862
459.136	80.39164
459.347	68.50899
459.559	71.76193
459.77	70.23501
459.982	74.39067
460.194	64.62696
460.405	66.87386
460.617	64.08668
460.828	61.10071
461.04	59.52643
461.251	60.17712
461.463	63.16439
461.674	61.14618
461.886	53.91544
462.097	51.31359
462.309	52.72898
462.52	59.02219
462.731	60.74909
462.943	58.27543
463.154	52.98798
463.366	54.88234
463.577	54.73931
463.788	62.53585
464	55.91909
464.211	56.18995
464.422	51.75944
464.634	58.20761
464.845	55.66413
465.056	55.66121
465.267	51.82389
465.478	58.70105
465.69	59.47349
465.901	60.18756
466.112	60.24696
466.323	60.64168
466.534	61.51205
466.745	57.31208
466.957	49.66241
467.168	46.87015
467.379	51.92171
467.59	58.75757
467.801	61.74692
468.012	56.16939
468.223	48.4901
468.434	43.89761
468.645	42.26747
468.856	47.86586
469.067	48.39176
469.278	50.02786
469.489	52.8235
469.7	55.8497
469.911	55.03415
470.122	56.08486
470.333	61.60056
470.543	59.51413
470.754	62.4382
470.965	57.67315
471.176	62.61991
471.387	58.55053
471.598	58.35926
471.808	60.97963
472.019	59.3489
472.23	59.14957
472.441	56.60035
472.651	58.3651
472.862	63.63076
473.073	64.54239
473.283	69.93513
473.494	67.01108
473.705	66.16147
473.915	59.41839
474.126	53.94769
474.337	57.30192
474.547	56.78978
474.758	64.73414
474.968	64.33796
475.179	72.62161
475.389	78.42803
475.6	72.43614
475.81	76.06629
476.021	76.51254
476.231	84.19884
476.442	77.39764
476.652	72.90154
476.863	70.36842
477.073	66.03739
477.284	60.99642
477.494	60.60191
477.704	67.14067
477.915	65.80217
478.125	73.3229
478.335	68.3088
478.546	73.94169
478.756	67.25577
478.966	68.56731
479.177	66.71069
479.387	70.10757
479.597	75.21596
479.807	78.89644
480.018	76.93665
480.228	75.50384
480.438	73.25431
480.648	76.5292
480.858	78.88927
481.068	78.35466
481.279	82.39326
481.489	86.50707
481.699	87.06719
481.909	88.46749
482.119	89.71954
482.329	99.82346
482.539	108.62719
482.749	111.87258
482.959	117.17992
483.169	122.33875
483.379	133.57451
483.589	145.51497
483.799	153.22296
484.009	164.75695
484.219	168.91664
484.429	174.59781
484.639	178.81714
484.849	186.23436
485.059	187.31117
485.268	183.48726
485.478	181.81925
485.688	188.8098
485.898	197.83826
486.108	209.32018
486.317	219.14155
486.527	231.40424
486.737	247.65585
486.947	260.18516
487.156	272.5777
487.366	268.61335
487.576	275.20901
487.785	280.47725
487.995	291.5913
488.205	296.28046
488.414	299.30324
488.624	309.6438
488.834	306.19816
489.043	306.75775
489.253	306.6464
489.462	315.67275
489.672	318.67101
489.882	315.07701
490.091	308.29064
490.301	306.11384
490.51	302.22839
490.72	302.62909
490.929	301.02159
491.138	305.81107
491.348	308.44777
491.557	302.26339
491.767	295.35541
491.976	287.75379
492.185	279.20638
492.395	272.80417
492.604	268.47613
492.813	272.25226
493.023	262.1445
493.232	252.24978
493.441	244.03178
493.651	238.72872
493.86	234.22934
494.069	233.94578
494.278	235.44112
494.488	233.7732
494.697	218.71996
494.906	210.04323
495.115	197.94542
495.324	197.38405
495.533	186.15149
495.743	191.70817
495.952	187.54937
496.161	187.89988
496.37	176.39257
496.579	168.6801
496.788	162.18397
496.997	157.17332
497.206	150.82916
497.415	144.3884
497.624	135.02828
497.833	122.03898
498.042	117.90075
498.251	104.88136
498.46	105.89753
498.669	100.93353
498.878	102.67073
499.087	104.07879
499.296	105.57322
499.504	114.49886
499.713	111.65924
499.922	111.53175
500.131	101.2175
500.34	96.36269
500.549	91.48838
500.757	95.67011
500.966	100.81495
501.175	101.39083
501.384	102.96808
501.592	101.93599
501.801	103.56294
502.01	102.69087
502.218	105.29672
502.427	105.62874
502.636	106.19412
502.844	106.90103
503.053	104.69714
503.262	102.87126
503.47	105.23933
503.679	107.29762
503.887	104.98429
504.096	102.98212
504.304	107.48684
504.513	107.03191
504.721	101.3536
504.93	96.6078
505.138	99.29872
505.347	101.10512
505.555	96.74207
505.764	94.60563
505.972	93.43147
506.18	98.2172
506.389	94.23995
506.597	95.57792
506.806	95.11413
507.014	104.69739
507.222	104.17915
507.431	103.62531
507.639	97.27582
507.847	95.66947
508.055	99.94129
508.264	102.50607
508.472	100.9788
508.68	98.86865
508.888	99.12407
509.096	97.66063
509.305	93.13821
509.513	97.24562
509.721	98.27673
509.929	101.23635
510.137	93.97923
510.345	101.18208
510.553	101.2754
510.762	107.12834
510.97	106.18232
511.178	104.4261
511.386	103.86521
511.594	99.01265
511.802	96.43113
512.01	96.5761
512.218	102.49806
512.426	103.5349
512.634	105.24909
512.842	103.72172
513.049	109.03943
513.257	111.2947
513.465	105.50327
513.673	100.79082
513.881	96.1153
514.089	97.87527
514.297	104.56303
514.504	107.61936
514.712	100.08763
514.92	96.70363
515.128	89.13403
515.336	99.06635
515.543	102.70546
515.751	108.98083
515.959	111.88219
516.166	114.69489
516.374	110.9283
516.582	109.89979
516.789	107.8168
516.997	115.66063
517.205	118.56587
517.412	118.84353
517.62	114.50764
517.827	116.92884
518.035	120.01465
518.243	125.4575
518.45	129.42294
518.658	136.23278
518.865	145.86465
519.073	148.4699
519.28	157.1119
519.488	164.25079
519.695	178.22957
519.902	182.3034
520.11	191.40258
520.317	203.1022
520.525	209.30365
520.732	219.28157
520.939	220.64226
521.147	236.36761
521.354	242.61299
521.561	254.27279
521.769	257.00858
521.976	256.65139
522.183	254.71761
522.391	256.07294
522.598	260.88962
522.805	261.88611
523.012	256.84124
523.219	258.40397
523.427	253.644
523.634	256.99207
523.841	250.75921
524.048	255.17394
524.255	256.871
524.462	249.90321
524.669	245.26644
524.877	242.62714
525.084	248.03984
525.291	249.30706
525.498	241.85938
525.705	242.71871
525.912	233.14517
526.119	234.02596
526.326	219.55845
526.533	218.04491
526.74	213.86051
526.947	217.60916
527.153	220.47221
527.36	212.50372
527.567	215.62908
527.774	204.31045
527.981	199.75155
528.188	186.0629
528.395	180.63438
528.602	170.41934
528.808	166.33983
529.015	158.80374
529.222	151.88834
529.429	139.85227
529.635	132.6477
529.842	128.36387
530.049	120.14191
530.256	119.12512
530.462	114.32494
530.669	109.02394
530.876	100.63702
531.082	97.86687
531.289	98.17726
531.495	101.70407
531.702	97.44866
531.909	92.66329
532.115	83.14797
532.322	85.29547
532.528	85.26186
532.735	87.77754
532.941	83.78358
533.148	85.09374
533.354	87.4225
533.561	94.08981
533.767	93.85619
533.974	95.33423
534.18	91.19381
534.387	91.26942
534.593	85.17161
534.799	86.80268
535.006	89.29948
535.212	93.2445
535.418	94.04397
535.625	97.03245
535.831	98.20273
536.037	95.38564
536.244	89.45868
536.45	87.38059
536.656	89.98503
536.862	92.50648
537.068	90.68049
537.275	90.35205
537.481	88.84365
537.687	91.38741
537.893	91.23103
538.099	92.50295
538.305	93.54261
538.512	95.07589
538.718	92.14007
538.924	93.33778
539.13	94.93174
539.336	100.75969
539.542	98.12046
539.748	97.69713
539.954	96.93674
540.16	98.1159
540.366	88.77037
540.572	88.79259
540.778	90.54271
540.984	104.44877
541.19	104.64222
541.396	96.83635
541.602	85.11055
541.807	86.37675
542.013	93.83011
542.219	96.5294
542.425	92.58797
542.631	91.74292
542.837	92.64844
543.042	97.7339
543.248	94.3867
543.454	96.18158
543.66	94.96936
543.865	95.59527
544.071	99.40804
544.277	104.22982
544.483	106.20214
544.688	98.30131
544.894	91.59989
545.1	87.63714
545.305	85.64485
545.511	85.21114
545.716	90.70099
545.922	94.60459
546.128	91.33181
546.333	83.95757
546.539	82.98912
546.744	79.56525
546.95	83.23406
547.155	82.54764
547.361	83.54338
547.566	80.49294
547.772	76.71381
547.977	76.86288
548.182	77.96022
548.388	78.36148
548.593	76.69671
548.799	81.22605
549.004	81.45012
549.209	82.6522
549.415	74.54861
549.62	80.61096
549.825	84.34788
550.031	91.54485
550.236	84.77221
550.441	85.47445
550.646	79.0946
550.852	79.32472
551.057	79.61027
551.262	78.59137
551.467	77.97151
551.672	65.17527
551.878	62.78148
552.083	61.83808
552.288	64.08477
552.493	66.57897
552.698	68.85471
552.903	70.36324
553.108	71.0666
553.313	73.811
553.518	74.56131
553.723	80.27723
553.928	79.09531
554.133	78.88489
554.338	74.84941
554.543	75.88023
554.748	78.77476
554.953	83.73353
555.158	82.02286
555.363	85.91987
555.568	78.06227
555.773	74.31301
555.978	65.53828
556.182	73.42036
556.387	75.59744
556.592	77.65189
556.797	69.08245
557.002	63.22339
557.206	69.50714
557.411	80.5468
557.616	92.33233
557.821	96.49163
558.025	90.45562
558.23	91.01141
558.435	87.32306
558.64	90.0297
558.844	84.08954
559.049	84.6543
559.253	85.98323
559.458	90.89669
559.663	97.86874
559.867	105.66124
560.072	112.80465
560.276	116.50621
560.481	118.41909
560.685	125.45193
560.89	128.37081
561.094	134.54743
561.299	137.24193
561.503	144.09223
561.708	146.44924
561.912	157.72604
562.117	164.26957
562.321	172.79443
562.525	175.49382
562.73	179.77229
562.934	180.92774
563.139	181.75908
563.343	182.06933
563.547	179.0066
563.752	180.84804
563.956	182.61892
564.16	188.8907
564.364	188.44915
564.569	188.69828
564.773	187.13484
564.977	182.39963
565.181	189.19396
565.385	192.57088
565.59	196.32918
565.794	185.24636
565.998	178.35032
566.202	178.21992
566.406	183.46774
566.61	179.88745
566.814	178.0482
567.018	178.99133
567.222	184.3395
567.426	177.2677
567.63	168.7279
567.834	165.15356
568.038	164.88315
568.242	167.01366
568.446	168.48759
568.65	171.50486
568.854	165.23507
569.058	162.52488
569.262	155.46872
569.466	152.38175
569.67	144.30801
569.874	140.99584
570.078	138.78055
570.281	135.57676
570.485	132.41608
570.689	124.48445
570.893	121.37812
571.097	123.49616
571.3	128.3023
571.504	125.71679
571.708	118.2568
571.912	114.35693
572.115	111.41279
572.319	106.44255
572.523	100.68853
572.726	92.46763
572.93	83.98946
573.133	81.0529
573.337	84.04118
573.541	99.82396
573.744	96.22779
573.948	99.77479
574.151	87.35174
574.355	91.88789
574.558	89.06834
574.762	91.30847
574.965	94.35769
575.169	95.02558
575.372	94.97127
575.576	90.70465
575.779	87.74316
575.983	94.20584
576.186	87.36696
576.389	89.68798
576.593	85.38939
576.796	91.76479
577	97.02919
577.203	94.7649
577.406	94.66937
577.609	91.77083
577.813	93.98862
578.016	96.03986
578.219	93.86851
578.423	94.70406
578.626	88.55854
578.829	86.37632
579.032	81.95589
579.235	87.47458
579.438	91.64252
579.642	92.55479
579.845	85.30919
580.048	84.73532
580.251	90.06311
580.454	93.41678
580.657	93.27954
580.86	92.05713
581.063	97.62435
581.266	96.25266
581.469	93.04638
581.672	94.86717
581.875	88.93207
582.078	90.76137
582.281	87.18203
582.484	99.52658
582.687	98.29571
582.89	94.48956
583.093	97.38095
583.296	104.27487
583.499	109.21802
583.702	103.58755
583.904	104.74038
584.107	110.87919
584.31	107.91342
584.513	106.09774
584.716	100.60333
584.918	111.1124
585.121	108.54372
585.324	112.24766
585.527	100.66373
585.729	98.22932
585.932	92.74674
586.135	99.51281
586.337	110.93873
586.54	115.79518
586.743	111.92351
586.945	103.19553
587.148	102.0672
587.35	100.5417
587.553	109.07794
587.755	109.0912
587.958	113.16291
588.161	105.64312
588.363	99.2351
588.566	98.99028
588.768	100.42464
588.971	102.95484
589.173	101.56195
589.375	94.07331
589.578	91.43687
589.78	88.05303
589.983	91.4311
590.185	95.82678
590.387	98.98834
590.59	99.22389
590.792	97.1411
590.994	97.0171
591.197	101.40114
591.399	100.38602
591.601	99.66989
591.803	90.63703
592.006	89.17419
592.208	88.25996
592.41	94.35536
592.612	98.1697
592.815	100.93924
593.017	99.59423
593.219	93.24686
593.421	86.57819
593.623	86.17047
593.825	91.16841
594.027	96.83151
594.229	90.6969
594.432	91.23046
594.634	89.95459
594.836	96.84727
595.038	104.58654
595.24	110.40933
595.442	108.35299
595.644	101.23657
595.846	92.95741
596.048	93.0509
596.249	95.2223
596.451	94.07416
596.653	94.57055
596.855	90.77559
597.057	97.04323
597.259	96.8566
597.461	95.98519
597.663	94.88491
597.864	96.87334
598.066	93.74097
598.268	96.28288
598.47	98.3335
598.671	106.23432
598.873	97.9006
599.075	96.38336
599.277	92.13093
599.478	98.26548
599.68	96.8902
599.882	105.75995
600.083	107.78189
600.285	115.07668
600.487	106.00582
600.688	101.04132
600.89	101.25275
601.091	102.06833
601.293	109.19119
601.494	106.42739
601.696	108.53458
601.898	106.58688
602.099	101.41494
602.301	103.29932
602.502	98.60302
602.703	103.99863
602.905	104.37436
603.106	105.80756
603.308	106.16521
603.509	107.04799
603.711	113.32888
603.912	113.6743
604.113	113.55551
604.315	114.96954
604.516	114.65861
604.717	118.46749
604.919	113.79978
605.12	125.29657
605.321	125.87195
605.522	131.08193
605.724	126.01925
605.925	127.03421
606.126	127.8464
606.327	130.30868
606.528	128.6235
606.729	134.42674
606.931	137.20278
607.132	143.75768
607.333	144.24248
607.534	138.11013
607.735	137.16026
607.936	139.76386
608.137	148.71075
608.338	151.53044
608.539	155.31086
608.74	155.97112
608.941	158.16225
609.142	156.77136
609.343	158.56813
609.544	161.50303
609.745	158.68802
609.946	155.57816
610.147	159.04965
610.348	162.28839
610.549	168.28883
610.75	173.65772
610.95	167.27567
611.151	165.09298
611.352	163.01456
611.553	169.96844
611.754	165.16246
611.954	158.19397
612.155	157.88798
612.356	155.73545
612.557	155.30346
612.757	151.96465
612.958	153.46057
613.159	151.33674
613.359	149.01955
613.56	144.48311
613.761	141.70774
613.961	138.67598
614.162	142.46989
614.362	143.60944
614.563	142.94243
614.764	137.98837
614.964	133.65677
615.165	134.94182
615.365	133.08043
615.566	129.0199
615.766	130.90492
615.967	127.9194
616.167	124.64615
616.368	118.36777
616.568	122.03328
616.768	122.84415
616.969	119.2798
617.169	111.28596
617.37	107.54427
617.57	105.48707
617.77	108.19166
617.971	107.96487
618.171	98.39148
618.371	92.86736
618.571	94.64161
618.772	99.00276
618.972	97.4472
619.172	93.69228
619.372	92.01767
619.573	90.90878
619.773	89.00114
619.973	89.73626
620.173	89.15102
620.373	83.22132
620.573	75.38419
620.774	76.10001
620.974	74.98975
621.174	80.61654
621.374	75.00296
621.574	78.9997
621.774	81.12909
621.974	83.23085
622.174	81.35854
622.374	74.67639
622.574	75.30638
622.774	75.82109
622.974	79.63532
623.174	80.44036
623.374	77.8128
623.574	72.08539
623.774	71.1819
623.973	77.59865
624.173	79.11856
624.373	70.80415
624.573	62.76334
624.773	64.71881
624.973	64.99143
625.172	65.57657
625.372	69.13196
625.572	71.79582
625.772	67.79052
625.971	63.55565
626.171	61.44031
626.371	61.11642
626.57	61.44925
626.77	61.28827
626.97	65.06684
627.169	57.63825
627.369	62.20686
627.569	64.64516
627.768	70.44124
627.968	69.75747
628.167	66.27634
628.367	62.20886
628.566	57.12334
628.766	52.85712
628.965	57.6128
629.165	63.98482
629.364	66.85144
629.564	70.02964
629.763	66.02996
629.963	68.56322
630.162	67.19842
630.362	66.57984
630.561	70.84882
630.76	65.32278
630.96	69.52954
631.159	68.06316
631.358	69.10149
631.558	72.64351
631.757	65.71169
631.956	68.30755
632.155	58.74106
632.355	63.8133
632.554	64.7351
632.753	69.26139
632.952	67.04615
633.152	64.57008
633.351	63.03964
633.55	69.32471
633.749	67.63773
633.948	67.79127
634.147	64.64346
634.346	66.55581
634.545	61.67838
634.744	59.10545
634.944	61.51853
635.143	64.37939
635.342	72.28541
635.541	67.62637
635.74	67.83317
635.939	56.40246
636.138	55.13417
636.336	54.57588
636.535	58.13575
636.734	57.15806
636.933	54.68346
637.132	56.43197
637.331	58.97506
637.53	63.4647
637.729	57.77713
637.928	57.3454
638.126	55.91721
638.325	60.72104
638.524	57.92913
638.723	61.0794
638.921	56.59581
639.12	58.12586
639.319	50.93679
639.518	55.84798
639.716	59.5732
639.915	66.71295
640.114	59.35716
640.312	49.41105
640.511	47.84261
640.71	47.4894
640.908	55.62728
641.107	50.70892
641.305	51.26125
641.504	47.81068
641.702	51.6476
641.901	50.69639
642.099	50.01694
642.298	46.47202
642.496	44.5333
642.695	43.75017
642.893	41.37821
643.092	47.38979
643.29	50.5865
643.489	55.16572
643.687	54.23166
643.885	51.85441
644.084	48.11779
644.282	46.71104
644.48	52.56527
644.679	55.71528
644.877	52.84745
645.075	42.822
645.274	47.85013
645.472	48.1073
645.67	58.19403
645.868	56.04103
646.067	59.43062
646.265	50.32349
646.463	48.17296
646.661	46.76576
646.859	50.0514
647.057	44.18746
647.256	51.13616
647.454	49.8606
647.652	54.19303
647.85	46.37609
648.048	51.20675
648.246	52.35017
648.444	56.6138
648.642	53.7721
648.84	48.84994
649.038	43.44228
649.236	43.44502
649.434	49.88848
649.632	55.91859
649.83	62.88266
650.028	53.51041
650.226	50.67769
650.423	45.14957
650.621	48.0154
650.819	46.44373
651.017	44.81934
651.215	48.4303
651.413	51.59567
651.61	52.53288
651.808	53.22512
652.006	48.63205
652.204	43.09273
652.401	37.94365
652.599	40.84353
652.797	42.31376
652.995	48.40267
653.192	52.53728
653.39	58.07438
653.588	55.72538
653.785	52.92069
653.983	49.95453
654.18	50.14985
654.378	52.00624
654.576	53.53979
654.773	59.6887
654.971	63.24619
655.168	70.24376
655.366	67.57553
655.563	63.05268
655.761	56.70628
655.958	50.46072
656.156	55.20121
656.353	61.49747
656.55	86.17092
656.748	106.61936
656.945	145.63605
657.143	193.47228
657.34	251.61292
657.537	314.91386
657.735	385.63468
657.932	478.95324
658.129	580.95999
658.326	687.90097
658.524	794.51459
658.721	900.71
658.918	1001.07566
659.115	1083.89718
659.313	1147.83464
659.51	1206.35207
659.707	1247.94239
659.904	1289.90025
660.101	1311.50706
660.298	1330.44482
660.496	1335.83622
660.693	1328.57417
660.89	1331.262
661.087	1337.02585
661.284	1349.65367
661.481	1352.40266
661.678	1346.0926
661.875	1323.35279
662.072	1309.69353
662.269	1304.89586
662.466	1310.99102
662.663	1311.69539
662.86	1297.64804
663.057	1288.67947
663.254	1270.93331
663.45	1252.94509
663.647	1231.54654
663.844	1216.43401
664.041	1209.06036
664.238	1204.80408
664.435	1191.84342
664.631	1180.44557
664.828	1166.47782
665.025	1159.73265
665.222	1147.88553
665.419	1127.6309
665.615	1099.49198
665.812	1073.31188
666.009	1032.03484
666.205	979.41257
666.402	910.6795
666.599	868.1691
666.795	830.114
666.992	818.8768
667.188	798.21306
667.385	777.8624
667.582	748.55139
667.778	724.26657
667.975	699.69439
668.171	670.01202
668.368	633.23083
668.564	590.02169
668.761	535.82143
668.957	490.18564
669.154	446.56255
669.35	396.75805
669.547	335.4804
669.743	273.40186
669.939	215.05309
670.136	166.51898
670.332	122.93767
670.528	96.96769
670.725	75.85745
670.921	63.11142
671.117	55.00518
671.314	50.35759
671.51	48.07529
671.706	43.84271
671.902	42.37038
672.099	47.90955
672.295	49.60273
672.491	49.412
672.687	38.40215
672.883	35.11636
673.08	35.70481
673.276	39.18944
673.472	39.77297
673.668	42.96835
673.864	43.84866
674.06	45.70902
674.256	38.21161
674.452	37.88505
674.648	42.04743
674.844	36.6415
675.04	39.05644
675.236	32.60608
675.432	41.62011
675.628	39.63168
675.824	45.88618
676.02	50.03818
676.216	52.44384
676.412	51.10448
676.608	49.00838
676.804	50.47504
676.999	53.67354
677.195	53.51276
677.391	52.82207
677.587	53.54008
677.783	52.69871
677.978	45.765
678.174	45.10848
678.37	52.49269
678.566	57.50522
678.761	51.05646
678.957	46.4915
679.153	51.68086
679.348	57.99447
679.544	60.21882
679.74	56.03953
679.935	53.21392
680.131	54.29021
680.327	60.84269
680.522	62.21172
680.718	51.59052
680.913	48.75706
681.109	47.51902
681.304	54.19799
681.5	51.94562
681.695	51.8796
681.891	50.02786
682.086	53.97855
682.282	56.19951
682.477	49.54954
682.672	46.25249
682.868	47.61366
683.063	52.37374
683.259	48.75974
683.454	46.77897
683.649	49.3529
683.845	48.96844
684.04	39.03124
684.235	37.86158
684.43	33.94809
684.626	36.98084
684.821	28.76517
685.016	34.15115
685.211	34.7316
685.407	36.91306
685.602	36.57497
685.797	32.9946
685.992	33.65156
686.187	27.46808
686.382	33.6899
686.577	36.09836
686.773	40.78719
686.968	34.24011
687.163	36.51654
687.358	35.80538
687.553	41.24552
687.748	39.65404
687.943	36.91055
688.138	34.82276
688.333	28.01212
688.528	26.05863
688.723	24.27189
688.918	30.56049
689.112	39.38567
689.307	45.83642
689.502	45.08698
689.697	39.97656
689.892	35.5438
690.087	39.97301
690.282	32.08786
690.476	33.52215
690.671	27.00827
690.866	36.46026
691.061	37.14839
691.255	34.3458
691.45	32.93895
691.645	26.94206
691.84	29.09486
692.034	25.96963
692.229	26.6824
692.424	21.24051
692.618	24.30048
692.813	22.02012
693.007	23.61389
693.202	20.84689
693.397	24.10687
693.591	29.38582
693.786	26.4215
693.98	27.33408
694.175	27.33626
694.369	32.38753
694.564	32.15633
694.758	28.1488
694.953	24.98815
695.147	24.89582
695.342	26.19932
695.536	28.44697
695.73	25.57904
695.925	31.40891
696.119	36.13091
696.313	35.31565
696.508	27.98653
696.702	27.70014
696.896	30.20748
697.091	33.24138
697.285	27.24491
697.479	24.51175
697.673	20.01125
697.868	23.33603
698.062	28.25313
698.256	33.1754
698.45	27.07811
698.644	22.19173
698.839	20.46401
699.033	23.03885
699.227	26.3613
699.421	28.25125
699.615	25.96937
699.809	23.36246
700.003	21.76669
700.197	18.1182
700.391	21.83253
700.585	19.93967
700.779	31.86251
700.973	25.47722
701.167	25.64109
701.361	19.81292
701.555	25.93889
701.749	25.90682
701.943	28.90127
702.137	27.27066
702.331	27.62707
702.525	26.88215
702.718	25.90726
702.912	32.84342
703.106	29.15971
703.3	36.13417
703.494	26.56163
703.687	35.491
703.881	30.66171
704.075	37.86331
704.269	33.2349
704.462	35.71313
704.656	34.60135
704.85	34.85965
705.043	39.32262
705.237	36.75115
705.431	41.76429
705.624	33.68609
705.818	32.08711
706.012	25.61029
706.205	22.77492
706.399	28.73821
706.592	29.77308
706.786	38.8982
706.979	38.05581
707.173	34.34844
707.366	33.8551
707.56	35.38306
707.753	38.5414
707.947	35.32149
708.14	34.86098
708.333	35.08873
708.527	34.82524
708.72	30.19971
708.914	32.80722
709.107	29.71032
709.3	33.72393
709.494	25.93653
709.687	27.40518
709.88	25.12178
710.073	31.70171
710.267	37.562
710.46	42.12075
710.653	40.49359
710.846	31.21102
711.04	28.70901
711.233	28.71033
711.426	34.50812
711.619	30.62573
711.812	34.31022
712.005	33.20357
712.198	32.42329
712.391	28.37811
712.585	25.64184
712.778	24.85893
712.971	25.21614
713.164	23.9476
713.357	22.93622
713.55	25.6421
713.743	26.22789
713.936	25.90154
714.129	23.32923
714.322	26.61975
714.514	34.53942
714.707	32.38954
714.9	32.45564
715.093	31.24807
715.286	34.92876
715.479	35.28469
715.672	29.74808
715.864	29.67925
716.057	21.92571
716.25	24.88556
716.443	21.04541
716.636	32.09339
716.828	36.20425
717.021	44.86576
717.214	40.82028
717.406	42.73877
717.599	43.29345
717.792	47.14062
717.984	46.29429
718.177	44.4733
718.37	45.08919
718.562	44.20787
718.755	39.93653
718.947	38.60189
719.14	36.67859
719.333	37.65648
719.525	36.58325
719.718	38.63351
719.91	42.70635
720.103	39.96622
720.295	29.74279
720.487	25.63731
720.68	27.82152
720.872	34.33445
721.065	31.8583
721.257	33.15777
721.449	33.16352
721.642	39.22578
721.834	39.42394
722.026	40.75745
722.219	43.98022
722.411	40.29847
722.603	39.48273
722.796	30.4624
722.988	30.76049
723.18	38.50818
723.372	33.42529
723.565	35.01687
723.757	33.68479
723.949	40.68662
724.141	43.06857
724.333	34.66379
724.525	40.04204
724.717	41.47289
724.91	44.34025
725.102	31.99024
725.294	26.94473
725.486	26.35886
725.678	25.21998
725.87	24.17194
726.062	25.56923
726.254	28.72983
726.446	33.90757
726.638	32.99255
726.83	38.63018
727.022	34.13597
727.213	36.81115
727.405	32.93241
727.597	31.72541
727.789	29.77622
727.981	30.65396
728.173	36.75047
728.365	37.04036
728.556	35.31203
728.748	37.09793
728.94	32.31167
729.132	31.33964
729.324	28.83699
729.515	35.5847
729.707	40.82244
729.899	44.53214
730.09	42.40797
730.282	43.54271
730.474	39.01833
730.665	39.83194
730.857	44.30259
731.049	49.64487
731.24	54.39817
731.432	51.53611
731.623	41.66646
731.815	37.24196
732.006	34.85939
732.198	38.04805
732.389	31.6609
732.581	31.79695
732.772	30.46467
732.964	37.69399
733.155	33.5217
733.347	31.34048
733.538	29.4569
733.729	40.07888
733.921	48.25057
734.112	46.58952
734.304	37.82344
734.495	35.35087
734.686	32.80689
734.877	31.50769
735.069	24.72973
735.26	27.26906
735.451	25.69967
735.643	30.2975
735.834	31.01648
736.025	32.48206
736.216	37.06688
736.407	39.86682
736.599	47.56072
736.79	41.99744
736.981	39.87905
737.172	38.70388
737.363	35.76996
737.554	38.2122
737.745	36.19532
737.936	32.90594
738.127	32.38712
738.318	23.29365
738.509	29.64407
738.7	24.40329
738.891	30.98582
739.082	28.64192
739.273	28.15059
739.464	30.75675
739.655	29.29089
739.846	30.5271
740.037	26.09712
740.228	27.4976
740.419	32.31734
740.609	30.84827
740.8	30.72051
740.991	22.51332
741.182	25.4714
741.373	32.31185
741.563	31.23842
741.754	29.64993
741.945	33.55821
742.136	37.50075
742.326	40.82379
742.517	31.99729
742.708	28.02093
742.898	27.85718
743.089	25.99597
743.28	26.09116
743.47	19.28245
743.661	26.26067
743.851	34.02175
744.042	35.48961
744.233	34.0496
744.423	28.50834
744.614	30.68594
744.804	27.66337
744.995	29.81043
745.185	36.85316
745.376	31.8633
745.566	30.98798
745.756	24.46642
745.947	30.43143
746.137	30.5939
746.328	27.24203
746.518	24.56745
746.708	23.32998
746.899	25.21784
747.089	31.64144
747.279	32.58187
747.47	39.2345
747.66	33.46241
747.85	30.88869
748.04	24.07264
748.231	27.78927
748.421	31.34229
748.611	34.31435
748.801	32.84781
748.991	33.23584
749.182	26.41991
749.372	21.98688
749.562	19.12645
749.752	23.72014
749.942	18.44302
750.132	15.34357
750.322	13.06455
750.512	17.7225
750.702	20.19942
750.892	19.06062
751.082	25.74226
751.272	33.72265
751.462	34.56924
751.652	35.25564
751.842	32.1291
752.032	36.55968
752.222	34.66365
752.412	29.64454
752.602	28.70018
752.792	30.4633
752.981	32.57955
753.171	34.21039
753.361	31.44025
753.551	32.35649
753.741	30.39764
753.93	32.87603
754.12	32.77622
754.31	38.31639
754.5	35.31639
754.689	38.48038
754.879	34.11248
755.069	32.87812
755.258	29.97603
755.448	27.1107
755.638	29.7165
755.827	29.48739
756.017	32.51697
756.206	34.47391
756.396	36.72292
756.586	34.25103
756.775	30.72486
756.965	26.0645
757.154	26.19009
757.344	24.10728
757.533	23.62171
757.723	20.29954
757.912	17.72649
758.101	21.40953
758.291	23.78741
758.48	27.86024
758.67	25.70838
758.859	29.9103
759.048	32.57928
759.238	35.93324
759.427	27.95108
759.616	20.6875
759.806	22.5733
759.995	29.68196
760.184	36.71864
760.373	30.76117
760.563	30.42913
760.752	32.5154
760.941	36.32561
761.13	37.98811
761.319	33.48966
761.509	34.46986
761.698	30.43024
761.887	33.46474
762.076	29.71489
762.265	33.56363
762.454	32.22151
762.643	35.22092
762.832	37.04164
763.021	39.48718
763.21	36.5843
763.399	34.72766
763.588	33.68665
763.777	35.08807
763.966	31.016
764.155	26.71369
764.344	32.1182
764.533	34.52868
764.722	31.53103
764.911	29.35468
765.1	25.21605
765.288	34.10841
765.477	26.1899
765.666	33.81619
765.855	30.98468
766.044	40.49987
766.232	39.6517
766.421	39.58567
766.61	38.24928
766.799	36.39041
766.987	39.41958
767.176	35.77253
767.365	31.83111
767.553	25.96454
767.742	24.69021
767.931	32.02207
768.119	30.62435
768.308	34.92899
768.497	29.64835
768.685	31.37418
768.874	26.84377
769.062	23.48917
769.251	20.95124
769.439	19.32221
769.628	23.26564
769.816	22.28662
770.005	22.47992
770.193	23.98119
770.382	25.54682
770.57	30.56601
770.758	28.74344
770.947	25.15816
771.135	20.59668
771.323	23.03616
771.512	33.27073
771.7	33.91843
771.888	31.0815
772.077	20.68582
772.265	25.44466
772.453	21.11288
772.642	26.22728
772.83	20.88585
773.018	19.97344
773.206	21.53972
773.394	20.75858
773.583	21.7718
773.771	16.19755
773.959	17.8937
774.147	16.35883
774.335	15.90242
774.523	15.83539
774.711	24.04861
774.899	22.35431
775.087	24.01656
775.275	18.96343
775.463	29.00562
775.651	28.28879
775.839	29.82263
776.027	29.58842
776.215	27.99563
776.403	31.50647
776.591	27.5329
776.779	25.11688
776.967	21.99759
777.155	19.2909
777.343	30.53809
777.531	26.36504
777.718	31.93992
777.906	22.38655
778.094	27.66656
778.282	20.42941
778.47	24.66181
778.657	27.39816
778.845	30.78894
779.033	28.47863
779.22	22.41731
779.408	31.95837
779.596	36.68179
779.783	39.41731
779.971	33.65537
780.159	32.31823
780.346	41.4085
780.534	45.63796
780.722	55.43653
780.909	58.91557
781.097	60.57554
781.284	51.03719
781.472	48.75839
781.659	52.47888
781.847	56.67737
782.034	51.39543
782.222	47.09317
782.409	50.54077
782.597	51.84439
782.784	52.54743
782.971	57.24077
783.159	59.94546
783.346	63.14689
783.533	56.95862
783.721	53.93163
783.908	42.69628
784.095	44.58466
784.283	47.58322
784.47	56.02011
784.657	50.22419
784.844	50.87785
785.032	51.56171
785.219	54.13479
785.406	56.05667
785.593	49.93386
785.78	50.33222
785.968	45.8676
786.155	47.46095
786.342	41.88549
786.529	39.76883
786.716	42.475
786.903	42.05125
787.09	46.16252
787.277	46.5817
787.464	47.72167
787.651	44.7881
787.838	41.34074
788.025	42.61446
788.212	36.26042
788.399	39.38044
788.586	36.45315
788.773	42.08847
788.96	42.5276
789.147	38.22475
789.334	30.96168
789.521	21.40736
789.707	20.46525
789.894	20.9214
790.081	18.93653
790.268	21.66905
790.455	23.68531
790.641	22.90162
790.828	15.40938
791.015	13.32817
791.202	12.3509
791.388	15.02478
791.575	14.43935
791.762	14.63498
791.948	12.54747
792.135	8.24389
792.322	5.11568
792.508	14.72871
792.695	16.58738
792.881	18.38042
793.068	7.07323
793.254	7.39954
793.441	5.47642
793.627	8.83357
793.814	10.65977
794	16.78478
794.187	18.41289
794.373	20.36347
794.56	14.89025
794.746	12.38142
794.933	13.46019
795.119	14.50247
795.305	24.54452
795.492	18.77441
795.678	19.45886
795.864	14.85826
796.051	18.02055
796.237	20.17166
796.423	14.40488
796.61	8.50633
796.796	8.05182
796.982	9.15901
797.168	7.3986
797.355	7.33237
797.541	10.26538
797.727	18.11971
797.913	16.84803
798.099	16.06739
798.285	14.24159
798.471	11.40626
798.658	12.67643
798.844	9.80942
799.03	15.25162
799.216	10.29721
799.402	12.77251
799.588	10.39477
799.774	11.76392
799.96	15.54399
800.146	13.22957
800.332	12.38168
800.518	6.35383
800.704	8.60215
800.89	18.77316
801.075	16.6225
801.261	19.29625
801.447	10.49475
801.633	17.50269
801.819	15.12328
802.005	15.97103
802.19	10.23453
802.376	12.05917
802.562	15.38276
802.748	19.32616
802.934	21.41232
803.119	14.53649
803.305	13.49205
803.491	15.12354
803.676	19.22973
803.862	17.11279
804.048	8.31078
804.233	5.37729
804.419	9.06057
804.605	13.49256
804.79	14.2103
804.976	9.45132
805.161	13.00395
805.347	8.11438
805.532	13.65409
805.718	5.99542
805.903	16.39172
806.089	13.72007
806.274	20.14028
806.46	16.52309
806.645	17.10915
806.831	15.28568
807.016	14.66642
807.201	16.75343
807.387	15.74034
807.572	12.51451
807.757	9.05929
807.943	13.5587
808.128	20.00969
808.313	19.06354
808.499	15.31578
808.684	11.47282
808.869	8.7036
809.054	7.92178
809.24	1.17483
809.425	8.44391
809.61	7.36766
809.795	7.8887
809.98	4.23712
810.165	-0.91199
810.35	3.58552
810.536	1.59773
810.721	3.25919
810.906	-2.83455
811.091	-1.72656
811.276	4.79282
811.461	8.96379
811.646	7.49692
811.831	1.49898
812.016	11.9934
812.201	10.39659
812.386	8.30997
812.571	-0.75069
812.756	4.30196
812.941	10.5269
813.125	11.99393
813.31	5.21349
813.495	3.87883
813.68	6.38767
813.865	6.4855
814.05	6.81116
814.234	1.23859
814.419	4.20453
814.604	6.48527
814.789	6.74595
814.973	9.15864
815.158	11.86307
815.343	15.31869
815.528	16.78555
815.712	8.28
815.897	3.52065
816.081	0.26113
816.266	3.91198
816.451	10.00741
816.635	15.83909
816.82	14.3077
817.004	14.40492
817.189	15.48181
817.374	16.8491
817.558	11.37338
817.743	5.93093
817.927	7.52803
818.111	12.61306
818.296	12.48364
818.48	13.46236
818.665	19.94444
818.849	18.34625
819.034	14.72826
819.218	9.87666
819.402	15.54964
819.587	12.48598
819.771	6.91131
819.955	5.27667
820.14	11.17645
820.324	11.17646
820.508	8.96367
820.692	7.4963
820.877	7.04001
821.061	4.53052
821.245	5.05303
821.429	4.10781
821.613	11.6383
821.798	14.79816
821.982	17.40611
822.166	7.16987
822.35	1.17317
822.534	1.43325
822.718	11.50568
822.902	10.49552
823.086	10.20208
823.27	4.23732
823.454	1.53155
823.638	1.82502
823.822	-1.69577
824.006	3.22707
824.19	3.58597
824.374	8.932
824.558	3.74849
824.742	0.88036
824.926	3.22742
825.11	7.2043
825.294	9.71381
825.477	4.79121
825.661	6.58515
825.845	8.9321
826.029	5.41199
826.213	10.91999
826.396	13.62443
826.58	14.99354
826.764	7.49607
826.948	3.87671
827.131	7.0386
827.315	3.97472
827.499	4.79115
827.682	6.09528
827.866	11.37562
828.05	12.31993
828.233	15.08854
828.417	18.54048
828.6	14.20692
828.784	7.46125
828.967	-4.04233
829.151	0.94477
829.335	4.49769
829.518	10.78875
829.701	11.11464
829.885	15.09178
830.068	16.68953
830.252	11.0505
830.435	8.24571
830.619	1.53094
830.802	8.86473
830.985	3.94391
831.169	9.81017
831.352	4.46495
831.535	4.79077
831.719	9.87553
831.902	12.28647
832.085	14.37116
832.269	8.47244
832.452	2.34534
832.635	6.48592
832.818	7.10565
833.002	10.7885
833.185	4.36769
833.368	4.66197
833.551	2.54373
833.734	2.70659
833.917	0.45597
834.1	3.39061
834.284	7.10774
834.467	6.58647
834.65	3.78233
834.833	7.20244
835.016	11.30902
835.199	11.76536
835.382	9.61616
835.565	9.35584
835.748	11.08293
835.931	8.53985
836.114	12.06018
836.297	9.0619
836.479	9.12556
836.662	12.25582
836.845	11.70169
837.028	15.28873
837.211	4.46596
837.394	6.19373
837.577	-0.6192
837.759	0.81493
837.942	2.44366
838.125	5.54058
838.308	6.06226
838.49	9.96926
838.673	8.56757
838.856	10.58943
839.039	8.76896
839.221	6.65037
839.404	6.28998
839.587	3.55262
839.769	10.98227
839.952	11.82975
840.134	17.04704
840.317	13.98471
840.499	10.98613
840.682	5.47537
840.865	0.1627
841.047	-3.91206
841.23	-3.00014
841.412	5.50342
841.595	10.09988
841.777	6.41697
841.959	4.04141
842.142	2.47722
842.324	5.8662
842.507	4.26879
842.689	4.26879
842.871	4.85512
843.054	-0.19649
843.236	6.90722
843.418	4.98575
843.601	9.25525
843.783	2.99847
843.965	8.93031
844.147	12.48147
844.33	12.67777
844.512	7.49558
844.694	8.60545
844.876	12.15623
845.059	23.65994
845.241	16.68477
845.423	8.63591
845.605	-8.27642
845.787	0.75065
845.969	5.9647
846.151	9.80862
846.333	5.86588
846.515	2.41208
846.697	5.4747
846.879	5.63807
847.061	18.34288
847.243	27.46855
847.425	30.69455
847.607	28.54593
847.789	23.42951
847.971	21.92887
848.153	25.22159
848.335	26.2973
848.517	26.42913
848.699	27.01298
848.881	33.6575
849.062	37.72877
849.244	35.15282
849.426	27.26913
849.608	27.62773
849.789	23.91618
849.971	27.17172
850.153	24.40207
850.335	25.63932
850.516	28.41168
850.698	33.26636
850.88	35.28508
851.061	31.01428
851.243	25.3772
851.425	26.9112
851.606	31.70454
851.788	34.66906
851.969	33.49781
852.151	26.84657
852.333	19.87529
852.514	17.42853
852.696	20.49356
852.877	24.7618
853.059	30.00425
853.24	23.58278
853.422	27.29605
853.603	24.69074
853.784	30.16879
853.966	27.92028
854.147	25.32104
854.329	24.6656
854.51	27.63579
854.691	27.36979
854.873	24.57121
855.054	25.64233
855.235	29.0347
855.416	35.15583
855.598	27.95459
855.779	20.00249
855.96	9.05804
856.141	16.81474
856.323	21.7002
856.504	31.57314
856.685	22.51405
856.866	16.52057
857.047	7.9192
857.228	2.15131
857.409	4.27002
857.591	6.68167
857.772	8.96298
857.953	4.88933
858.134	5.50747
858.315	3.03107
858.496	14.40594
858.677	8.50745
858.858	11.24454
859.039	-1.14071
859.22	4.23929
859.401	8.83446
859.582	10.07302
859.762	10.52687
859.943	7.17054
860.124	17.11033
860.305	15.70862
860.486	8.17874
860.667	1.20598
860.848	-0.32549
861.028	7.62813
861.209	8.31256
861.39	9.84433
861.571	9.81062
861.751	6.32212
861.932	8.73248
862.113	17.53621
862.293	25.81117
862.474	26.04166
862.655	17.85746
862.835	16.52585
863.016	9.55021
863.197	7.43203
863.377	3.09704
863.558	0.19629
863.738	1.01065
863.919	4.23638
864.099	13.49367
864.28	14.1451
864.46	11.50465
864.641	1.36655
864.821	3.06207
865.002	2.9978
865.182	7.78988
865.363	7.52955
865.543	9.97416
865.723	13.10432
865.904	12.32047
866.084	5.63832
866.264	4.4625
866.445	2.73681
866.625	8.34005
866.805	10.71999
866.986	7.91689
867.166	5.53944
867.346	2.60709
867.526	3.03053
867.707	3.94247
867.887	6.5491
868.067	7.10332
868.247	9.02661
868.427	6.38694
868.607	11.04727
868.788	2.6064
868.968	0.03184
869.148	-5.50814
869.328	-1.53107
869.508	0.88022
869.688	3.2265
869.868	8.73446
870.048	7.20292
870.228	5.2798
870.408	6.84643
870.588	5.67336
870.768	9.03076
870.948	-0.06485
871.128	3.94386
871.307	9.71048
871.487	9.35302
871.667	11.11376
871.847	7.40138
872.027	8.70421
872.207	7.30303
872.387	8.73597
872.566	13.65596
872.746	15.67496
872.926	9.93864
873.106	12.67824
873.285	14.73265
873.465	17.34027
873.645	16.52705
873.824	14.50756
874.004	9.25894
874.184	4.2702
874.363	2.50809
874.543	4.85581
874.723	8.73464
874.902	4.00888
875.082	9.94134
875.261	8.14704
875.441	9.58135
875.62	3.81185
875.8	0.81481
875.979	-0.4563
876.159	2.60705
876.338	5.89843
876.518	9.77689
876.697	9.28756
876.876	10.52731
877.056	8.76727
877.235	6.35625
877.415	4.36642
877.594	2.93239
877.773	-3.22799
877.953	-2.50923
878.132	2.41202
878.311	4.13899
878.49	1.07443
878.67	-7.17072
878.849	1.37055
879.028	4.89091
879.207	14.50471
879.387	10.13609
879.566	11.60178
879.745	10.19983
879.924	9.35229
880.103	8.24563
880.282	6.97626
880.461	16.59423
880.64	13.26858
880.819	10.75849
880.998	6.19158
881.178	5.40985
881.357	12.90414
881.536	7.95091
881.715	8.40743
881.893	6.52017
882.072	13.55817
882.251	16.62276
882.43	11.27642
882.609	4.85772
882.788	-0.48852
882.967	-1.85779
883.146	2.24998
883.325	9.84441
883.503	15.93924
883.682	12.02708
883.861	12.25552
884.04	10.886
884.219	11.6359
884.397	5.18177
884.576	5.60547
884.755	5.8012
884.933	7.88751
885.112	7.79175
885.291	8.24738
885.469	10.82351
885.648	9.35561
885.827	9.35682
886.005	6.22616
886.184	3.35803
886.363	9.78031
886.541	16.75537
886.72	17.08029
886.898	13.42874
887.077	4.75893
887.255	7.85701
887.434	4.98727
887.612	0.25824
887.791	-1.17629
887.969	4.72538
888.147	9.12838
888.326	8.99726
888.504	7.10471
888.682	14.53639
888.861	16.26351
889.039	15.155
889.218	14.86282
889.396	13.52747
889.574	10.72473
889.752	3.32468
889.931	-0.84722
890.109	0.58729
890.287	5.47626
890.465	8.96384
890.643	9.38678
890.822	6.71377
891	10.26456
891.178	15.77522
891.356	15.28657
891.534	14.44217
891.712	11.24483
891.89	16.9498
892.068	13.75444
892.247	14.5712
892.425	7.98626
892.603	9.12675
892.781	6.61644
892.959	1.63066
893.137	7.26749
893.314	5.44228
893.492	15.83904
893.67	11.63517
893.848	13.16645
894.026	10.46017
894.204	4.39974
894.382	7.98752
894.56	12.12557
894.738	13.62404
894.915	12.64275
895.093	11.07987
895.271	17.82528
895.449	15.25118
895.626	17.33902
895.804	16.55669
895.982	17.66607
896.16	17.99121
896.337	13.69048
896.515	10.85454
896.693	-1.1725
896.87	2.25022
897.048	-1.04172
897.225	5.0524
897.403	3.84587
897.581	8.11466
897.758	12.61215
897.936	10.59165
898.113	10.1354
898.291	7.62657
898.468	9.94003
898.646	10.4617
898.823	7.26721
899.001	8.08236
899.178	5.508
899.356	14.92499
899.533	10.03602
899.71	17.43653
899.888	8.67105
900.065	15.74635
900.242	15.25633
900.42	13.2682
900.597	8.47432
900.774	0.42293
900.952	7.43242
901.129	11.57226
901.306	14.08218
901.483	7.59444
901.661	6.94208
901.838	10.78896
902.015	17.40577
902.192	16.91879
902.369	14.01694
902.546	9.87692
902.723	9.02761
902.901	6.32256
903.078	2.67256
903.255	0.19589
903.432	6.12665
903.609	4.17058
903.786	6.15986
903.963	-0.29231
904.14	4.62975
904.317	1.27137
904.494	3.25953
904.671	7.17297
904.848	8.44451
905.024	6.22801
905.201	-0.06504
905.378	3.03119
905.555	8.14777
905.732	9.41922
905.909	-0.29049
906.086	-0.97323
906.262	2.05717
906.439	13.66051
906.616	13.33363
906.793	15.94264
906.969	14.66878
907.146	11.37681
907.323	3.12929
907.5	-5.47716
907.676	0.06313
907.853	3.32285
908.03	9.02779
908.206	11.73452
908.383	12.8105
908.559	12.54995
908.736	2.24931
908.912	3.42244
909.089	1.72727
909.266	7.49729
909.442	6.87782
909.619	7.23653
909.795	0.78156
909.972	-2.21687
910.148	0.22817
910.324	4.95525
910.501	5.96619
910.677	9.29238
910.854	8.54237
911.03	7.95518
911.206	5.76734
911.383	2.2468
911.559	1.88824
911.735	1.40009
911.912	6.61528
912.088	8.86381
912.264	10.32954
912.44	16.553
912.617	22.87516
912.793	18.47695
912.969	9.3855
913.145	3.45439
913.321	8.53873
913.498	12.41607
913.674	12.8734
913.85	3.09605
914.026	-1.79154
914.202	-1.14041
914.378	2.64002
914.554	7.62544
914.73	3.09547
914.906	2.76954
915.082	-0.12995
915.258	4.62983
915.434	8.99695
915.61	9.35599
915.786	10.03947
915.962	10.10663
916.138	7.92204
916.314	3.22811
916.49	2.54191
916.665	9.02945
916.841	8.63828
917.017	1.23922
917.193	-3.55319
917.369	-6.61646
917.545	3.39156
917.72	6.97639
917.896	12.67969
918.072	8.6365
918.247	9.41874
918.423	11.7003
918.599	16.94922
918.775	13.82126
918.95	6.75018
919.126	-0.09554
919.301	1.07676
919.477	3.09569
919.653	7.72383
919.828	9.19006
920.004	13.55569
920.179	14.10303
920.355	12.66915
920.53	12.50883
920.706	5.99699
920.881	2.54274
921.057	-2.54247
921.232	4.95507
921.408	6.65056
921.583	11.40929
921.759	5.70434
921.934	2.83533
922.109	1.20563
922.285	4.62896
922.46	8.99727
922.635	8.2153
922.811	5.0203
922.986	4.66118
923.161	4.04169
923.336	2.28201
923.512	2.21605
923.687	3.71549
923.862	2.02096
924.037	-2.93248
924.212	-4.17114
924.388	-0.09753
924.563	0.1308
924.738	-2.47743
924.913	-3.29246
925.088	-4.59618
925.263	3.29314
925.438	4.30361
925.613	7.20422
925.788	1.27116
925.963	2.34716
926.138	4.43276
926.313	12.191
926.488	11.832
926.663	6.5206
926.838	-1.30288
927.013	-4.72558
927.188	0.2606
927.363	5.21555
927.538	4.72682
927.713	5.90015
927.888	4.9557
928.062	4.46724
928.237	4.4999
928.412	0.88061
928.587	6.45371
928.761	2.77032
928.936	8.1167
929.111	7.69284
929.286	9.7792
929.46	6.32347
929.635	4.62922
929.81	5.31323
929.984	2.50991
930.159	6.3568
930.334	4.98812
930.508	8.28011
930.683	0.8466
930.857	7.1707
931.032	5.7043
931.206	9.77956
931.381	2.64034
931.556	8.43939
931.73	14.89653
931.904	20.04442
932.079	11.83358
932.253	6.41926
932.428	8.7666
932.602	15.83887
932.777	14.69896
932.951	7.66009
933.125	6.61556
933.3	9.05809
933.474	13.13392
933.648	14.86126
933.823	13.06918
933.997	9.84061
934.171	0.58558
934.345	-2.67306
934.52	-1.3371
934.694	7.5298
934.868	11.50739
935.042	20.14303
935.217	13.2968
935.391	6.02647
935.565	-6.09603
935.739	-4.10788
935.913	0.48846
936.087	5.37803
936.261	5.70476
936.435	8.14958
936.609	7.7581
936.783	8.60571
936.957	5.93289
937.131	4.30278
937.305	4.13966
937.479	11.83073
937.653	8.76717
937.827	7.4304
938.001	3.09719
938.175	6.71467
938.349	3.78086
938.523	0.94434
938.697	0.55306
938.87	1.00976
939.044	3.09599
939.218	3.81221
939.392	9.28948
939.566	8.31159
939.739	3.91269
939.913	5.24814
940.087	1.23858
940.261	5.15049
940.434	2.83527
940.608	2.44512
940.782	1.07556
940.955	-1.20569
941.129	0.0649
941.302	0.45621
941.476	2.77127
941.65	4.14028
941.823	7.46429
941.997	8.89745
942.17	6.68012
942.344	8.27692
942.517	9.06053
942.691	12.02729
942.864	9.48598
943.038	3.68312
943.211	3.87927
943.385	-3.77829
943.558	-5.95881
943.731	-8.40363
943.905	-2.57146
944.078	0.48905
944.251	7.07351
944.425	7.46412
944.598	9.15948
944.771	4.53073
944.945	4.5314
945.118	2.90126
945.291	7.30203
945.464	2.11875
945.638	5.31191
945.811	-0.06676
945.984	-0.75149
946.157	0.94483
946.33	0.16248
946.503	5.99829
946.677	1.66317
946.85	6.87877
947.023	5.70467
947.196	8.89986
947.369	8.34592
947.542	9.35641
947.715	5.86767
947.888	4.92122
948.061	1.4986
948.234	1.40079
948.407	2.1516
948.58	7.69136
948.753	4.56205
948.926	6.35516
949.099	3.09714
949.271	10.07193
949.444	9.19161
949.617	8.44203
949.79	2.77112
949.963	2.70518
950.136	2.54219
950.308	2.18369
950.481	-2.73782
950.654	-1.5316
950.827	-0.16273
950.999	4.13873
951.172	8.53848
951.345	9.90736
951.517	8.80109
951.69	7.95353
951.863	11.86517
952.035	14.96045
952.208	10.26723
952.381	3.74799
952.553	-3.42308
952.726	-6.48772
952.898	-3.45599
953.071	-3.97676
953.243	-3.35814
953.416	-8.6372
953.588	-5.80161
953.761	-1.04152
953.933	-0.06556
954.106	1.59595
954.278	2.18267
954.45	6.45318
954.623	4.72621
954.795	-1.75998
954.967	-2.3468
955.14	5.96409
955.312	11.83102
955.484	9.38619
955.657	0.81459
955.829	3.61697
956.001	5.24692
956.173	5.60569
956.346	3.97826
956.518	8.02098
956.69	3.35794
956.862	-0.75027
957.034	-4.23872
957.207	0.9776
957.379	3.84591
957.551	6.90919
957.723	7.79053
957.895	5.18271
958.067	1.53257
958.239	4.46478
958.411	9.61392
958.583	9.09254
958.755	4.10616
958.927	-2.02063
959.099	-0.39101
959.271	-1.36876
959.443	-0.48903
959.615	-4.30221
959.787	-0.48855
959.959	0.75039
960.13	8.40982
960.302	5.89987
960.474	9.25716
960.646	8.21409
960.818	17.60316
960.99	12.77866
961.161	13.56051
961.333	10.69072
961.505	14.40692
961.677	9.06201
961.848	5.57469
962.02	4.7604
962.192	2.86942
962.363	6.12645
962.535	3.48555
962.707	7.72325
962.878	3.87926
963.05	8.93245
963.221	13.91865
963.393	8.54087
963.564	3.29203
963.736	-2.73738
963.907	-6.48647
964.079	-5.93215
964.25	1.72657
964.422	10.29986
964.593	7.07313
964.765	-1.17226
964.936	-4.82394
965.108	-2.31429
965.279	-0.2932
965.45	3.22786
965.622	9.84421
965.793	6.19299
965.964	12.42022
966.136	4.43441
966.307	5.77118
966.478	-5.05321
966.65	0.58681
966.821	7.00813
966.992	5.99824
967.163	5.86669
967.334	3.29158
967.506	10.49562
967.677	10.49646
967.848	7.10657
968.019	8.15067
968.19	8.15007
968.361	7.36766
968.532	7.4969
968.703	4.92213
968.874	7.72531
969.045	3.12901
969.216	7.10632
969.387	8.50801
969.558	6.61724
969.729	7.65927
969.9	-1.95439
970.071	0.39262
970.242	-4.49646
970.413	1.92298
970.584	7.26816
970.755	10.75442
970.926	10.23287
971.097	0.06365
971.267	4.72624
971.438	5.50856
971.609	7.2691
971.78	-1.33579
971.951	-2.93266
972.121	7.23601
972.292	8.3767
972.463	11.76686
972.633	5.70501
972.804	5.93296
972.975	3.52027
973.145	0.22762
973.316	5.05212
973.487	1.56414
973.657	11.1501
973.828	3.19637
973.998	8.64025
974.169	1.56446
974.339	4.66092
974.51	5.53982
974.68	2.44308
974.851	5.77033
975.021	5.90195
975.192	10.82407
975.362	5.90006
975.533	5.05198
975.703	4.26923
975.874	4.26927
976.044	6.19257
976.214	7.20314
976.385	13.32962
976.555	8.73368
976.725	2.34619
976.896	-0.78124
977.066	-4.10564
977.236	0.52194
977.406	-3.52032
977.577	5.53793
977.747	2.76759
977.917	5.34314
978.087	2.37965
978.257	8.31265
978.427	5.86776
978.598	6.7809
978.768	0.74974
978.938	2.93297
979.108	2.37795
979.278	9.22407
979.448	7.65999
979.618	6.35704
979.788	3.29159
979.958	-4.63021
980.128	-4.10838
980.298	-8.44403
980.468	2.89884
980.638	4.59439
980.808	9.02748
980.978	7.26917
981.148	7.00704
981.317	6.94335
981.487	9.77927
981.657	6.5202
981.827	3.29238
981.997	1.33635
982.167	4.36757
982.336	6.77986
982.506	7.3333
982.676	7.98394
982.846	7.03861
983.015	4.52941
983.185	0.71722
983.355	0.16323
983.524	0.42385
983.694	-3.03177
983.864	-1.85823
984.033	-0.52133
984.203	2.60817
984.372	0.29367
984.542	-2.24928
984.712	-2.54269
984.881	-1.79292
985.051	-0.71746
985.22	-1.01081
985.39	-2.1516
985.559	-4.95401
985.728	1.72921
985.898	1.43577
986.067	4.62912
986.237	-0.45693
986.406	-0.58762
986.576	1.76055
986.745	4.62938
986.914	3.32615
987.084	6.61939
987.253	7.46706
987.422	11.76956
987.591	5.11806
987.761	3.52011
987.93	0.4893
988.099	4.46671
988.268	4.14028
988.438	8.83352
988.607	9.84154
988.776	6.15925
988.945	5.21384
989.114	-0.88006
989.283	0.78218
989.452	5.76726
989.621	8.50544
989.791	4.13714
989.96	-2.21698
990.129	-0.74929
990.298	8.01877
990.467	10.13773
990.636	10.13755
990.805	5.54211
990.974	6.45631
991.142	1.82758
991.311	-2.73384
991.48	-5.50624
991.649	1.6633
991.818	9.68013
991.987	8.11537
992.156	10.36647
992.325	8.11691
992.493	11.3051
992.662	7.88035
992.831	2.43901
993	4.53176
993.168	0.3608
993.337	6.25874
993.506	1.07561
993.675	2.50982
993.843	4.46654
994.012	8.37718
994.181	6.81257
994.349	4.59543
994.518	5.37974
994.686	8.76815
994.855	5.54069
995.024	-0.42513
995.192	-1.85806
995.361	1.33618
995.529	-1.9889
995.698	-2.60785
995.866	-6.29093
996.035	-2.77047
996.203	2.44501
996.371	5.9653
996.54	10.43011
996.708	2.99804
996.877	2.93325
997.045	-3.51884
997.213	-4.10587
997.382	-3.38913
997.55	4.07292
997.718	5.01856
997.887	10.55957
998.055	7.43165
998.223	5.37799
998.391	-2.54268
998.56	-1.14102
998.728	2.05346
998.896	5.70522
999.064	5.05286
999.232	12.12358
999.401	9.28689
999.569	11.34185
999.737	5.08583
999.905	6.9438
1000.073	8.831
1000.241	6.54928
1000.409	6.51589
1000.577	0.06415
1000.745	7.46377
1000.913	5.63913
1001.081	15.77548
1001.249	12.7099
1001.417	13.62293
1001.585	8.0501
1001.753	9.45341
1001.921	8.18186
1002.089	3.32495
1002.256	1.2062
1002.424	-5.37909
1002.592	1.46582
1002.76	0.58494
1002.928	10.82283
1003.096	10.95215
1003.263	5.41225
1003.431	7.53059
1003.599	-0.55205
1003.767	3.22814
1003.934	4.07512
1004.102	9.28993
1004.27	13.10231
1004.437	9.58126
1004.605	6.22516
1004.773	3.45588
1004.94	2.57632
1005.108	5.54215
1005.275	5.31387
1005.443	5.57359
1005.61	3.71552
1005.778	3.91138
1005.945	7.00883
1006.113	5.11847
1006.28	7.20434
1006.448	5.86854
1006.615	2.34782
1006.783	-1.53108
1006.95	-7.26916
1007.118	-2.15139
1007.285	-2.47711
1007.452	-0.87993
1007.62	0.16315
1007.787	2.05342
1007.954	7.16955
1008.122	4.2688
1008.289	5.60624
1008.456	5.99869
1008.623	8.24751
1008.791	7.92012
1008.958	-1.30506
1009.125	-3.91194
1009.292	-6.7472
1009.459	-0.7811
1009.627	3.94389
1009.794	5.86643
1009.961	-0.00098
1010.128	-0.84781
1010.295	-2.64038
1010.462	5.01947
1010.629	-0.00047
1010.796	-0.42381
1010.963	-4.75913
1011.13	1.66199
1011.297	-2.44683
1011.464	2.2781
1011.631	1.82153
1011.798	9.71141
1011.965	7.56154
1012.132	8.63754
1012.299	9.51659
1012.466	13.55715
1012.633	8.70025
1012.799	7.75597
1012.966	4.46589
1013.133	1.98966
1013.3	1.5664
1013.467	0.75064
1013.633	5.28063
1013.8	7.10587
1013.967	5.86719
1014.134	3.55334
1014.3	1.49972
1014.467	3.39044
1014.634	-0.94589
1014.8	-4.59644
1014.967	-7.20412
1015.134	5.31274
1015.3	11.66937
1015.467	16.7551
1015.633	14.73528
1015.8	19.9812
1015.966	17.27435
1016.133	12.97121
1016.3	11.76972
1016.466	11.37863
1016.632	11.80267
1016.799	0.39111
1016.965	-1.5315
1017.132	-1.75984
1017.298	0.09757
1017.465	-1.01032
1017.631	-1.62965
1017.797	2.37995
1017.964	5.01959
1018.13	7.26832
1018.296	3.58476
1018.463	3.29165
1018.629	5.96641
1018.795	8.15025
1018.961	2.87014
1019.128	-2.47704
1019.294	-1.17279
1019.46	6.16139
1019.626	5.08565
1019.792	6.68202
1019.959	6.52001
1020.125	4.8253
1020.291	2.28431
1020.457	-1.13971
1020.623	5.41169
1020.789	9.22511
1020.955	7.85623
1021.121	6.77988
1021.287	2.50899
1021.453	6.15959
1021.619	9.03011
1021.785	4.33656
1021.951	0.06574
1022.117	-7.3019
1022.283	-4.69414
1022.449	1.04396
1022.615	1.46804
1022.781	7.52782
1022.946	3.19218
1023.112	0.25981
1023.278	-1.9535
1023.444	-4.52897
1023.61	2.4129
1023.775	1.89078
1023.941	5.90057
1024.107	4.85673
1024.273	9.52039
1024.438	7.36895
1024.604	6.29319
1024.77	-7.23457
1024.935	-7.36546
1025.101	-2.76908
1025.267	6.02981
1025.432	14.83237
1025.598	8.18276
1025.763	4.92348
1025.929	-1.49896
1026.095	-2.47705
1026.26	-4.69481
1026.426	-0.85088
1026.591	1.65896
1026.757	2.96416
1026.922	-1.20588
1027.087	2.41199
1027.253	5.50832
1027.418	10.52642
1027.584	6.15843
1027.749	7.46233
1027.914	9.7156
1028.08	13.98657
1028.245	6.29414
1028.41	5.44438
1028.576	6.61693
1028.741	17.82807
1028.906	11.83022
1029.072	8.50574
1029.237	2.44469
1029.402	2.02041
1029.567	1.53159
1029.732	0.48833
1029.898	4.66102
1030.063	5.80174
1030.228	6.22575
1030.393	3.81312
1030.558	6.19311
1030.723	7.23603
1030.888	5.73726
1031.053	3.03165
1031.218	1.6302
1031.383	4.33517
1031.548	6.2264
1031.713	3.22716
1031.878	-2.60782
1032.043	-2.47961
1032.208	7.72534
1032.373	15.97062
1032.538	17.2439
1032.703	7.65941
1032.868	5.61063
1033.033	-5.375
1033.198	-2.11625
1033.362	-7.20394
1033.527	1.66107
1033.692	7.39676
1033.857	10.62338
1034.021	11.86255
1034.186	8.53921
1034.351	8.60511
1034.516	9.22437
1034.68	9.64703
1034.845	4.98588
1035.01	4.00966
1035.174	-2.50956
1035.339	-1.95558
1035.504	-4.33619
1035.668	4.49991
1035.833	9.55203
1035.997	11.14932
1036.162	9.81289
1036.326	5.15181
1036.491	3.68474
1036.655	1.85728
1036.82	11.17735
1036.984	13.71919
1037.149	8.27605
1037.313	-2.05424
1037.478	-5.08493
1037.642	-0.48837
1037.807	0.58726
1037.971	1.66244
1038.135	3.22666
1038.3	5.86642
1038.464	8.18192
1038.628	4.07507
1038.792	9.84576
1038.957	9.90911
1039.121	15.09039
1039.285	13.55536
1039.449	11.86158
1039.614	11.30873
1039.778	2.08796
1039.942	-1.4973
1040.106	-4.13789
1040.27	-2.47721
1040.434	-0.39108
1040.599	7.56346
1040.763	11.6064
1040.927	16.26763
1041.091	10.88816
1041.255	11.34307
1041.419	5.14955
1041.583	2.86763
1041.747	2.21584
1041.911	0.48821
1042.075	-2.0542
1042.239	-1.33785
1042.403	2.63869
1042.567	8.63586
1042.731	6.12699
1042.894	5.93112
1043.058	1.72715
1043.222	-3.55199
1043.386	-5.0182
1043.55	-8.3428
1043.714	2.80447
1043.877	5.96605
1044.041	9.77933
1044.205	11.86439
1044.369	11.83304
1044.532	12.19123
1044.696	0.03069
1044.86	-4.85899
1045.023	-6.84671
1045.187	-7.00747
1045.351	-0.87903
1045.514	3.19482
1045.678	12.38698
1045.841	12.30401
