Data from H2O_Subt9__7__00047.txt Node

Date: Tue Nov 04 10:20:33 EST 2025
User: brett
Spectrometer: USB4F03499
Trigger mode: 4
Integration Time (sec): 3.000000E-2
Scans to average: 15
Electric dark correction enabled: true
Nonlinearity correction enabled: true
Boxcar width: 1
XAxis mode: Wavelengths
Number of Pixels in Spectrum: 3648
>>>>>Begin Spectral Data<<<<<
345.386	-16.2808
345.605	-16.2808
345.824	-7.56937
346.044	-5.12164
346.263	1.20694
346.482	-2.87072
346.701	0.88024
346.92	3.94434
347.139	4.27032
347.358	0.9144
347.577	-3.91026
347.796	-2.86712
348.015	-0.09821
348.234	0.74984
348.453	-1.9882
348.672	-1.69483
348.891	-3.71553
349.11	5.085
349.329	7.88769
349.548	14.69762
349.767	17.11241
349.986	20.98962
350.205	20.21109
350.424	20.20984
350.643	20.83133
350.862	17.7651
351.08	13.52401
351.299	12.34917
351.518	17.43384
351.737	15.31652
351.956	14.69754
352.174	18.28137
352.393	22.71405
352.612	23.65725
352.831	22.65147
353.049	25.61549
353.268	25.94164
353.487	29.55813
353.705	27.05052
353.924	28.58171
354.143	23.39851
354.361	23.2024
354.58	24.54105
354.798	26.91708
355.017	32.25969
355.236	32.5518
355.454	33.88586
355.673	32.2868
355.891	34.43436
356.11	34.46879
356.328	38.99709
356.547	43.61887
356.765	49.05625
356.984	46.68027
357.202	45.28204
357.42	46.15868
357.639	47.91131
357.857	46.70255
358.076	42.24429
358.294	47.75556
358.512	51.43681
358.731	56.02477
358.949	52.66126
359.167	45.46203
359.386	47.15786
359.604	50.14099
359.822	60.33775
360.04	60.46346
360.259	57.02283
360.477	50.6414
360.695	46.76574
360.913	54.06343
361.131	59.00656
361.35	57.34369
361.568	50.24695
361.786	48.8401
362.004	54.12389
362.222	58.38393
362.44	55.79267
362.658	55.81599
362.876	48.9822
363.094	54.61289
363.312	54.81673
363.53	60.24852
363.749	57.99786
363.967	58.87412
364.184	53.53645
364.402	54.45441
364.62	49.63905
364.838	43.71775
365.056	35.17929
365.274	32.24456
365.492	32.79821
365.71	31.59471
365.928	31.27295
366.146	31.20674
366.364	27.89023
366.581	26.03304
366.799	26.26545
367.017	29.03696
367.235	26.00788
367.453	28.64088
367.67	30.07294
367.888	33.26314
368.106	26.51802
368.323	19.31571
368.541	9.54308
368.759	13.22958
368.977	15.60907
369.194	26.42864
369.412	25.71224
369.629	28.40957
369.847	25.86458
370.065	31.75944
370.282	28.01807
370.5	28.11698
370.717	21.53579
370.935	23.49021
371.152	22.4147
371.37	23.81517
371.588	23.06644
371.805	24.92573
372.022	18.05228
372.24	21.63601
372.457	23.2596
372.675	39.2281
372.892	35.80541
373.11	34.82951
373.327	31.30873
373.544	35.4475
373.762	38.89784
373.979	31.27241
374.196	33.09455
374.414	31.30657
374.631	39.58108
374.848	35.15176
375.066	36.91122
375.283	31.14593
375.5	34.69557
375.717	37.72528
375.935	43.61603
376.152	41.26873
376.369	33.32151
376.586	33.73958
376.803	40.12542
377.02	45.40137
377.238	46.094
377.455	43.80958
377.672	42.18283
377.889	39.3158
378.106	39.87803
378.323	41.31242
378.54	44.95291
378.757	40.58477
378.974	43.83575
379.191	43.58317
379.408	44.52829
379.625	34.72383
379.842	39.48025
380.059	48.04322
380.276	53.22698
380.493	43.67933
380.71	37.42666
380.927	38.88299
381.143	46.11671
381.36	45.78699
381.577	52.14532
381.794	50.11679
382.011	48.68429
382.228	43.6281
382.444	45.22799
382.661	51.97418
382.878	52.86148
383.095	48.62918
383.311	46.31818
383.528	49.28223
383.745	52.89874
383.962	51.85734
384.178	48.24111
384.395	44.43188
384.612	44.49147
384.828	45.30338
385.045	46.4058
385.261	45.88857
385.478	47.15864
385.695	40.68094
385.911	37.00004
386.128	35.05086
386.344	41.79437
386.561	45.53845
386.777	47.9759
386.994	52.56312
387.21	53.90018
387.427	55.49875
387.643	53.25677
387.86	55.07965
388.076	56.97076
388.292	47.94413
388.509	48.46566
388.725	40.83721
388.942	42.53679
389.158	36.73771
389.374	33.28817
389.591	40.25374
389.807	45.72265
390.023	55.56025
390.239	48.72709
390.456	40.22873
390.672	36.58459
390.888	38.66101
391.104	44.16552
391.321	44.84708
391.537	47.3263
391.753	44.81517
391.969	39.73047
392.185	39.34111
392.401	45.01427
392.618	51.10791
392.834	53.96738
393.05	49.63323
393.266	47.80223
393.482	45.3925
393.698	45.35834
393.914	45.16746
394.13	50.57862
394.346	53.14999
394.562	53.25344
394.778	46.28222
394.994	44.10572
395.21	39.8341
395.426	41.79166
395.642	45.66789
395.858	51.1381
396.073	50.77745
396.289	49.08273
396.505	46.83618
396.721	48.07765
396.937	44.85379
397.153	44.07283
397.369	43.91191
397.584	44.69276
397.8	41.88972
398.016	40.90502
398.232	42.20389
398.447	47.16222
398.663	45.53924
398.879	47.33097
399.094	46.67251
399.31	45.0088
399.526	43.67346
399.741	41.10551
399.957	41.43516
400.173	37.27107
400.388	36.52296
400.604	39.28259
400.82	38.92299
401.035	42.21092
401.251	36.06233
401.466	40.56314
401.682	35.67615
401.897	38.50763
402.113	35.70277
402.328	38.6039
402.544	33.13279
402.759	32.05678
402.974	28.34055
403.19	41.2401
403.405	39.2534
403.621	35.83083
403.836	28.66633
404.051	33.06802
404.267	41.40939
404.482	41.86045
404.697	42.31076
404.913	42.31051
405.128	46.21777
405.343	49.02206
405.559	48.50143
405.774	44.20682
405.989	43.71143
406.204	41.95516
406.42	41.62969
406.635	41.60168
406.85	43.25656
407.065	43.31989
407.28	38.63296
407.495	37.92298
407.71	38.76852
407.926	40.94996
408.141	41.30103
408.356	46.08615
408.571	46.86562
408.786	45.20978
409.001	40.5598
409.216	34.79824
409.431	33.26558
409.646	38.99655
409.861	40.06567
410.076	43.91424
410.291	38.83107
410.506	44.27559
410.721	44.23823
410.936	48.99575
411.15	43.03193
411.365	44.62004
411.58	43.51222
411.795	54.9095
412.01	56.02245
412.225	61.46317
412.439	58.17406
412.654	54.72466
412.869	48.60079
413.084	46.45304
413.299	49.15772
413.513	49.18734
413.728	45.92646
413.943	44.52057
414.157	38.03822
414.372	41.65046
414.587	39.30686
414.801	43.83132
415.016	43.77181
415.231	52.66379
415.445	51.3296
415.66	51.03618
415.874	40.61638
416.089	43.58251
416.304	42.57297
416.518	53.35301
416.733	51.30039
416.947	53.60821
417.162	42.85677
417.376	38.16564
417.59	33.547
417.805	36.87299
418.019	44.62134
418.234	48.07696
418.448	44.55917
418.663	45.19057
418.877	45.48221
419.091	44.7958
419.306	45.43735
419.52	41.72355
419.734	49.89305
419.949	45.3365
420.163	48.75741
420.377	42.76994
420.591	44.4901
420.806	41.36052
421.02	41.16738
421.234	40.87486
421.448	41.85465
421.663	46.77441
421.877	47.39929
422.091	44.4349
422.305	43.8758
422.519	42.86433
422.733	42.08299
422.947	36.48599
423.161	34.0744
423.376	40.77947
423.59	43.18982
423.804	40.61689
424.018	36.25016
424.232	41.25562
424.446	47.24706
424.66	49.70071
424.874	45.9026
425.088	46.60152
425.302	47.70342
425.515	47.79161
425.729	45.43628
425.943	45.53318
426.157	44.00021
426.371	43.86284
426.585	41.67587
426.799	47.51302
427.013	47.3228
427.226	47.06891
427.44	46.25193
427.654	42.76435
427.868	44.45465
428.081	35.89206
428.295	41.23682
428.509	42.34424
428.723	40.38825
428.936	38.72946
429.15	31.56299
429.364	38.11282
429.577	36.74403
429.791	41.49929
430.005	40.45612
430.218	38.76597
430.432	39.41851
430.645	36.15969
430.859	36.0917
431.073	30.59011
431.286	36.65435
431.5	42.87082
431.713	43.49064
431.927	41.07971
432.14	34.53728
432.354	39.68343
432.567	38.9328
432.781	40.32946
432.994	38.59794
433.207	40.78182
433.421	39.22158
433.634	42.02147
433.848	35.86288
434.061	39.96128
434.274	35.30945
434.488	36.93462
434.701	38.72684
434.914	40.87469
435.127	44.6535
435.341	38.07869
435.554	36.25385
435.767	38.79815
435.98	45.0474
436.194	47.69049
436.407	47.16975
436.62	48.28272
436.833	50.75437
437.046	50.07238
437.259	44.91818
437.473	44.20612
437.686	41.04265
437.899	43.19486
438.112	43.41974
438.325	44.45986
438.538	45.73354
438.751	47.82516
438.964	52.0292
439.177	54.23447
439.39	51.00088
439.603	52.37033
439.816	49.3804
440.029	53.63592
440.242	51.3156
440.455	56.91765
440.668	61.18879
440.881	63.05131
441.094	60.60819
441.306	59.14623
441.519	64.64159
441.732	67.66593
441.945	67.0398
442.158	62.44888
442.37	66.16618
442.583	70.5446
442.796	70.0857
443.009	61.61737
443.222	55.81381
443.434	56.76409
443.647	58.64686
443.86	58.54793
444.072	56.07617
444.285	57.05028
444.498	58.45219
444.71	59.68988
444.923	53.90217
445.136	45.10939
445.348	46.38356
445.561	52.44599
445.773	59.83791
445.986	62.07966
446.198	63.64258
446.411	60.16292
446.623	52.25047
446.836	53.45629
447.048	52.53645
447.261	55.78495
447.473	49.61766
447.686	51.99495
447.898	46.72603
448.11	59.46977
448.323	58.33353
448.535	55.23822
448.748	40.22428
448.96	33.38538
449.172	40.15901
449.385	41.16798
449.597	44.23085
449.809	45.98693
450.021	42.86133
450.234	50.69838
450.446	46.66142
450.658	58.78002
450.87	55.81787
451.083	57.57222
451.295	52.15655
451.507	49.62717
451.719	55.45704
451.931	57.40445
452.143	68.73171
452.356	68.40704
452.568	76.37516
452.78	72.92327
452.992	78.25127
453.204	69.53776
453.416	70.5699
453.628	72.56464
453.84	73.31568
454.052	67.60064
454.264	65.28255
454.476	69.35448
454.688	76.8342
454.9	73.68767
455.112	68.11501
455.324	68.18627
455.536	69.78103
455.747	75.63194
455.959	75.97636
456.171	77.40711
456.383	74.90391
456.595	71.3964
456.807	73.70756
457.018	76.05702
457.23	74.97663
457.442	71.29138
457.654	68.94452
457.865	67.99454
458.077	68.68243
458.289	64.98043
458.501	74.23885
458.712	75.45414
458.924	80.85692
459.136	71.31895
459.347	62.88233
459.559	64.15249
459.77	61.42137
459.982	63.46451
460.194	54.21822
460.405	54.83839
460.617	52.14631
460.828	57.26176
461.04	55.29886
461.251	64.01668
461.463	63.55462
461.674	66.15453
461.886	52.38561
462.097	49.13301
462.309	47.35925
462.52	56.12566
462.731	56.03036
462.943	54.72808
463.154	50.15604
463.366	47.39457
463.577	43.90137
463.788	50.46185
464	49.18387
464.211	54.88812
464.422	50.91324
464.634	54.36813
464.845	51.33649
465.056	49.67384
465.267	47.75515
465.478	52.12644
465.69	50.55717
465.901	52.2157
466.112	49.9001
466.323	52.4092
466.534	56.2405
466.745	52.95068
466.957	45.43032
467.168	45.27423
467.379	50.09841
467.59	62.78986
467.801	61.5493
468.012	58.93357
468.223	54.90286
468.434	46.4054
468.645	47.50785
468.856	46.53114
469.067	51.41737
469.278	55.03869
469.489	47.45334
469.7	44.4917
469.911	37.13521
470.122	45.99626
470.333	58.7688
470.543	58.60279
470.754	60.22611
470.965	50.9381
471.176	54.64905
471.387	49.60279
471.598	55.95163
471.808	64.88412
472.019	65.62888
472.23	65.49397
472.441	62.91118
472.651	64.77336
472.862	67.69637
473.073	64.24875
473.283	68.0813
473.494	60.44063
473.705	61.02245
473.915	61.69171
474.126	59.89718
474.337	61.46228
474.547	57.66807
474.758	61.87183
474.968	57.86518
475.179	60.55715
475.389	66.40004
475.6	67.49868
475.81	70.28166
476.021	69.26133
476.231	74.37834
476.442	63.50657
476.652	57.87108
476.863	56.18381
477.073	63.50044
477.284	64.73704
477.494	64.79772
477.704	62.6528
477.915	58.35364
478.125	60.28059
478.335	62.03086
478.546	67.30683
478.756	60.81666
478.966	61.44546
479.177	59.36087
479.387	62.36616
479.597	68.97001
479.807	76.48878
480.018	73.61885
480.228	71.60092
480.438	66.6521
480.648	74.05834
480.858	73.75284
481.068	73.83726
481.279	73.39074
481.489	76.39895
481.699	79.52688
481.909	85.9323
482.119	89.78483
482.329	99.66079
482.539	109.47139
482.749	111.87249
482.959	121.14005
483.169	124.31943
483.379	139.28601
483.589	139.70703
483.799	151.53438
484.009	154.86427
484.219	164.05342
484.429	165.32475
484.639	169.05945
484.849	171.32513
485.059	165.43764
485.268	170.68755
485.478	173.04065
485.688	191.46569
485.898	196.47779
486.108	204.49896
486.317	209.78935
486.527	223.76665
486.737	245.16571
486.947	256.82729
487.156	263.7271
487.366	265.48164
487.576	275.88718
487.785	281.64316
487.995	285.16769
488.205	290.59872
488.414	292.55808
488.624	304.15843
488.834	295.25737
489.043	298.07488
489.253	292.80099
489.462	298.89288
489.672	300.69801
489.882	300.65447
490.091	303.71004
490.301	303.66229
490.51	306.97151
490.72	304.75843
490.929	303.24793
491.138	298.90355
491.348	296.92383
491.557	292.67579
491.767	282.66446
491.976	270.14818
492.185	257.98261
492.395	259.65441
492.604	263.04855
492.813	263.10597
493.023	252.64167
493.232	242.32529
493.441	239.27868
493.651	232.32474
493.86	228.73069
494.069	225.4377
494.278	225.86688
494.488	221.57798
494.697	208.85145
494.906	199.71653
495.115	190.62767
495.324	193.98421
495.533	188.48416
495.743	185.48693
495.952	180.25919
496.161	176.13691
496.37	164.88437
496.579	152.95538
496.788	147.69047
496.997	144.58799
497.206	139.93012
497.415	133.77978
497.624	135.93863
497.833	127.46081
498.042	117.47712
498.251	101.89473
498.46	98.94866
498.669	102.58994
498.878	105.33497
499.087	105.44298
499.296	100.66836
499.504	100.04511
499.713	96.29587
499.922	98.34486
500.131	88.19032
500.34	84.86263
500.549	80.63705
500.757	88.002
500.966	90.67774
501.175	91.05942
501.384	92.18365
501.592	96.21977
501.801	102.7187
502.01	101.81338
502.218	107.0179
502.427	103.28998
502.636	108.33791
502.844	102.97026
503.053	99.40056
503.262	93.15605
503.47	91.82169
503.679	94.39979
503.887	94.45845
504.096	95.24812
504.304	96.7657
504.513	96.08328
504.721	93.03735
504.93	93.2942
505.138	93.58197
505.347	99.15678
505.555	95.2161
505.764	94.60545
505.972	91.93682
506.18	93.96071
506.389	93.55725
506.597	89.69523
506.806	91.18123
507.014	99.72502
507.222	103.72444
507.431	103.46295
507.639	98.38072
507.847	93.03751
508.055	93.11801
508.264	93.08359
508.472	105.19863
508.68	107.76701
508.888	108.15252
509.096	101.59196
509.305	101.22864
509.513	105.62839
509.721	103.67011
509.929	101.4308
510.137	93.62109
510.345	94.78128
510.553	94.41984
510.762	100.98781
510.97	103.42093
511.178	104.97868
511.386	103.15135
511.594	97.29144
511.802	95.55395
512.01	92.80622
512.218	96.25971
512.426	97.91296
512.634	103.49409
512.842	110.44389
513.049	107.73793
513.257	107.06951
513.465	96.27649
513.673	96.8928
513.881	93.22301
514.089	98.78411
514.297	98.97516
514.504	101.18723
514.712	89.72458
514.92	91.0506
515.128	85.95073
515.336	92.66679
515.543	94.3253
515.751	99.17225
515.959	106.4269
516.166	109.69367
516.374	116.64132
516.582	110.87184
516.789	111.32225
516.997	108.06195
517.205	113.59745
517.412	115.04389
517.62	117.39629
517.827	118.71503
518.035	118.78195
518.243	115.65277
518.45	123.67467
518.658	129.70752
518.865	143.52938
519.073	144.99931
519.28	151.40536
519.488	154.10546
519.695	169.21824
519.902	180.94141
520.11	192.57049
520.317	197.76453
520.525	202.31327
520.732	216.30408
520.939	221.48309
521.147	234.8794
521.354	235.59552
521.561	247.87173
521.769	245.69362
521.976	249.28048
522.183	245.60043
522.391	250.0281
522.598	249.73883
522.805	251.12375
523.012	249.24624
523.219	250.64746
523.427	247.01898
523.634	246.51946
523.841	242.87143
524.048	242.62922
524.255	239.12491
524.462	236.87643
524.669	233.33982
524.877	231.21138
525.084	232.58259
525.291	234.65844
525.498	234.94007
525.705	233.9892
525.912	226.6772
526.119	223.28686
526.326	214.57623
526.533	218.59696
526.74	221.33654
526.947	217.60954
527.153	211.92774
527.36	198.13357
527.567	203.3939
527.774	192.7193
527.981	191.13745
528.188	179.13048
528.395	177.81557
528.602	163.60965
528.808	157.74619
529.015	148.68498
529.222	144.17059
529.429	133.81843
529.635	123.56312
529.842	120.9969
530.049	113.16357
530.256	113.0533
530.462	107.70029
530.669	104.05537
530.876	97.09591
531.082	97.80111
531.289	98.63154
531.495	104.88744
531.702	93.84042
531.909	89.67272
532.115	78.79267
532.322	81.65588
532.528	79.18462
532.735	82.80517
532.941	83.91368
533.148	86.459
533.354	84.46671
533.561	82.6829
533.767	80.59644
533.974	84.05576
534.18	82.51643
534.387	82.59145
534.593	77.37125
534.799	80.46484
535.006	84.19752
535.212	87.395
535.418	94.27222
535.625	96.02614
535.831	99.89335
536.037	91.71329
536.244	83.34825
536.45	79.74296
536.656	80.36489
536.862	85.35603
537.068	80.11709
537.275	82.19411
537.481	80.26363
537.687	84.53016
537.893	85.70588
538.099	89.83778
538.305	90.71521
538.512	92.18346
538.718	89.15009
538.924	90.70594
539.13	89.43982
539.336	90.36096
539.542	88.8589
539.748	88.98812
539.954	88.65145
540.16	90.80523
540.366	85.97734
540.572	88.40267
540.778	89.2433
540.984	96.45438
541.19	96.45291
541.396	91.86371
541.602	87.90509
541.807	88.68406
542.013	93.4404
542.219	94.18979
542.425	91.32069
542.631	87.84332
542.837	84.42716
543.042	85.93719
543.248	86.3921
543.454	89.29172
543.66	87.04002
543.865	86.59325
544.071	85.82292
544.277	88.62991
544.483	91.99963
544.688	95.53939
544.894	94.49237
545.1	92.18759
545.305	87.23744
545.511	83.97662
545.716	82.21958
545.922	79.42692
546.128	88.60148
546.333	86.13399
546.539	89.42373
546.744	78.13482
546.95	75.20449
547.155	76.89113
547.361	77.75699
547.566	78.70432
547.772	72.09694
547.977	70.97753
548.182	73.18107
548.388	73.71167
548.593	76.30611
548.799	75.86136
549.004	78.10184
549.209	75.27268
549.415	72.69542
549.62	75.83125
549.825	69.97656
550.031	77.17374
550.236	71.70137
550.441	75.03351
550.646	68.75094
550.852	73.92454
551.057	81.26945
551.262	81.87603
551.467	77.15837
551.672	65.14207
551.878	58.77979
552.083	59.43026
552.288	61.35176
552.493	64.27079
552.698	61.86261
552.903	69.12837
553.108	70.09316
553.313	75.01675
553.518	74.27112
553.723	79.66079
553.928	80.91816
554.133	73.9425
554.338	69.77623
554.543	68.23878
554.748	70.061
554.953	77.68636
555.158	78.90186
555.363	81.85838
555.568	75.52901
555.773	73.4056
555.978	70.96884
556.182	76.44494
556.387	75.11002
556.592	74.5951
556.797	65.04995
557.002	62.93065
557.206	71.49089
557.411	77.19882
557.616	82.54619
557.821	86.12023
558.025	86.68457
558.23	88.6709
558.435	84.59262
558.64	89.96376
558.844	86.36415
559.049	87.25386
559.253	87.70526
559.458	92.68356
559.663	97.83711
559.867	98.9401
560.072	98.84101
560.276	100.98484
560.481	106.24315
560.685	122.20551
560.89	128.37069
561.094	132.27642
561.299	129.90976
561.503	142.49829
561.708	149.69004
561.912	157.92077
562.117	157.72155
562.321	167.57532
562.525	174.65163
562.73	177.08383
562.934	173.37901
563.139	176.08983
563.343	178.24648
563.547	179.71953
563.752	181.46369
563.956	184.75727
564.16	192.48622
564.364	190.91127
564.569	186.49626
564.773	185.06244
564.977	180.39175
565.181	187.02528
565.385	186.48256
565.59	190.37034
565.794	189.84697
565.998	182.65907
566.202	181.07064
566.406	179.22354
566.61	176.68009
566.814	171.99006
567.018	169.17505
567.222	170.018
567.426	168.8109
567.63	159.03314
567.834	160.25564
568.038	165.40118
568.242	173.14306
568.446	170.4672
568.65	160.74093
568.854	154.63316
569.058	155.81333
569.262	149.8548
569.466	144.01067
569.67	129.22002
569.874	133.98801
570.078	132.51735
570.281	137.62042
570.485	132.70769
570.689	132.50207
570.893	130.01333
571.097	125.57443
571.3	125.8354
571.504	119.32141
571.708	118.192
571.912	114.77939
572.115	116.18655
572.319	113.39387
572.523	106.73112
572.726	102.54162
572.93	94.77757
573.133	87.13085
573.337	85.43905
573.541	93.7506
573.744	94.73497
573.948	94.12265
574.151	87.38442
574.355	82.33651
574.558	86.60169
574.762	84.09745
574.965	94.03367
575.169	91.51593
575.372	96.72605
575.576	92.39414
575.779	87.61323
575.983	89.78709
576.186	83.07785
576.389	85.23626
576.593	80.71008
576.796	90.49757
577	94.39767
577.203	93.07488
577.406	90.77023
577.609	87.83905
577.813	95.67845
578.016	91.94488
578.219	93.77041
578.423	88.13989
578.626	90.86635
578.829	86.37672
579.032	82.86569
579.235	80.78143
579.438	84.5269
579.642	81.57036
579.845	84.26715
580.048	76.44786
580.251	85.0278
580.454	85.55442
580.657	94.77519
580.86	91.57262
581.063	92.72032
581.266	86.01749
581.469	83.19897
581.672	86.57986
581.875	84.87076
582.078	87.90209
582.281	91.2421
582.484	97.90428
582.687	95.95774
582.89	85.81677
583.093	91.012
583.296	101.05851
583.499	104.9946
583.702	94.68976
583.904	93.86057
584.107	98.40896
584.31	104.08077
584.513	100.8369
584.716	98.29767
584.918	103.38262
585.121	103.47709
585.324	105.52487
585.527	101.50896
585.729	103.65436
585.932	101.48507
586.135	102.20926
586.337	103.82576
586.54	99.62004
586.743	103.41318
586.945	100.04471
587.148	102.78077
587.35	98.43052
587.553	101.57425
587.755	108.63638
587.958	111.14871
588.161	111.74995
588.363	101.83356
588.566	102.33638
588.768	95.19281
588.971	101.23156
589.173	95.16028
589.375	98.29671
589.578	87.47139
589.78	86.45893
589.983	80.83752
590.185	88.9064
590.387	91.41814
590.59	95.42256
590.792	92.20218
590.994	90.64783
591.197	91.71894
591.399	96.06455
591.601	95.2183
591.803	93.13812
592.006	91.28585
592.208	93.55648
592.41	95.84937
592.612	95.01742
592.815	92.00199
593.017	88.12208
593.219	83.78947
593.421	81.89795
593.623	82.62899
593.825	85.25565
594.027	93.61615
594.229	92.16034
594.432	91.62044
594.634	84.59279
594.836	85.89623
595.038	93.73489
595.24	100.20906
595.442	99.61511
595.644	93.4066
595.846	88.34349
596.048	91.71924
596.249	90.67443
596.451	89.65593
596.653	85.27765
596.855	88.33887
597.057	94.21696
597.259	95.55708
597.461	99.39224
597.663	99.85122
597.864	102.65216
598.066	96.69859
598.268	97.19374
598.47	99.04949
598.671	101.62059
598.873	96.92609
599.075	93.07065
599.277	93.46518
599.478	93.33003
599.68	99.84938
599.882	98.80919
600.083	104.50133
600.285	103.64281
600.487	104.31902
600.688	103.61059
600.89	98.0682
601.091	96.05652
601.293	94.47241
601.494	95.90025
601.696	101.51602
601.898	104.11663
602.099	108.91924
602.301	104.01391
602.502	101.13667
602.703	103.28308
602.905	107.07044
603.106	104.83275
603.308	99.63565
603.509	97.88775
603.711	102.90234
603.912	107.63322
604.113	110.30733
604.315	112.50219
604.516	112.9059
604.717	117.07207
604.919	115.22887
605.12	119.51956
605.321	114.31413
605.522	112.93447
605.724	110.62931
605.925	115.31592
606.126	121.71141
606.327	124.75922
606.528	126.09184
606.729	131.99241
606.931	136.0667
607.132	141.06386
607.333	136.94011
607.534	135.57808
607.735	137.51625
607.936	144.40455
608.137	148.7116
608.338	147.73511
608.539	143.34126
608.74	144.61834
608.941	148.85307
609.142	157.93862
609.343	157.46496
609.544	158.68129
609.745	153.62899
609.946	157.26301
610.147	160.37825
610.348	163.29316
610.549	169.32614
610.75	174.69532
610.95	176.15892
611.151	168.72454
611.352	160.78037
611.553	160.53669
611.754	156.24915
611.954	155.11352
612.155	147.67418
612.356	147.66226
612.557	148.55942
612.757	151.99724
612.958	156.60562
613.159	152.04919
613.359	150.31553
613.56	138.22353
613.761	138.27
613.961	136.14658
614.162	141.04264
614.362	138.57992
614.563	142.45541
614.764	140.42125
614.964	136.25161
615.165	124.94613
615.365	123.31186
615.566	122.13983
615.766	122.3051
615.967	122.17629
616.167	120.65649
616.368	120.21961
616.568	116.84139
616.768	114.56707
616.969	111.78042
617.169	104.3368
617.37	106.31054
617.57	106.52581
617.77	106.6966
617.971	104.45676
618.171	96.76796
618.371	99.9488
618.571	101.17149
618.772	102.9982
618.972	97.38206
619.172	95.05612
619.372	96.0143
619.573	102.24736
619.773	93.41723
619.973	88.75662
620.173	82.09684
620.373	82.44135
620.573	84.32346
620.774	84.45433
620.974	79.47588
621.174	75.38267
621.374	69.76913
621.574	70.74395
621.774	76.90449
621.974	75.91766
622.174	79.86304
622.374	75.0991
622.574	77.4843
622.774	73.61015
622.974	74.36812
623.174	73.4829
623.374	73.5209
623.574	69.94014
623.774	68.77539
623.973	71.41985
624.173	69.88272
624.373	65.7635
624.573	64.06446
624.773	60.97831
624.973	60.66598
625.172	60.63306
625.372	67.57128
625.572	69.2919
625.772	65.57963
625.971	60.01047
626.171	60.59435
626.371	58.05822
626.57	60.99294
626.77	55.46482
626.97	58.4301
627.169	53.50653
627.369	63.02007
627.569	66.88988
627.768	68.09884
627.968	67.21996
628.167	62.04699
628.367	63.47762
628.566	58.16443
628.766	54.93924
628.965	57.41753
629.165	56.63434
629.364	57.06034
629.564	56.95488
629.763	56.40189
629.963	57.34234
630.162	61.04989
630.362	63.42391
630.561	74.19805
630.76	66.52519
630.96	68.71516
631.159	65.39534
631.358	62.88718
631.558	65.12908
631.757	59.69392
631.956	64.04865
632.155	58.7103
632.355	56.10539
632.554	61.70992
632.753	65.87802
632.952	67.30636
633.152	61.31748
633.351	58.42079
633.55	61.09604
633.749	66.50083
633.948	63.82486
634.147	62.82161
634.346	60.92729
634.545	61.0592
634.744	61.90276
634.944	57.54961
635.143	60.34467
635.342	65.38938
635.541	62.32431
635.74	64.51683
635.939	60.50081
636.138	64.37268
636.336	63.87863
636.535	59.33736
636.734	59.69322
636.933	51.19944
637.132	56.69109
637.331	58.35608
637.53	64.50582
637.729	60.51044
637.928	52.33651
638.126	48.14199
638.325	46.73264
638.524	46.67183
638.723	45.17103
638.921	45.07802
639.12	48.33324
639.319	45.79462
639.518	42.37643
639.716	44.50585
639.915	55.12829
640.114	55.61375
640.312	47.65365
640.511	42.53802
640.71	43.58422
640.908	48.04618
641.107	47.55371
641.305	48.20363
641.504	48.59202
641.702	51.81034
641.901	49.16708
642.099	46.56698
642.298	47.25175
642.496	52.41135
642.695	51.85623
642.893	45.77602
643.092	45.60034
643.29	56.1836
643.489	51.48839
643.687	48.24248
643.885	44.53205
644.084	46.58652
644.282	49.05357
644.48	45.47136
644.679	44.55547
644.877	40.74394
645.075	39.30915
645.274	44.33477
645.472	43.4205
645.67	48.13857
645.868	51.16131
646.067	54.58342
646.265	54.13224
646.463	50.45194
646.661	47.84139
646.859	47.9039
647.057	45.45713
647.256	52.89333
647.454	44.55666
647.652	47.45719
647.85	42.34132
648.048	47.17039
648.246	47.3372
648.444	50.85205
648.642	47.91398
648.84	43.57773
649.038	42.85511
649.236	47.25116
649.434	50.79968
649.632	52.34006
649.83	58.52359
650.028	58.71862
650.226	55.49545
650.423	48.53464
650.621	43.10003
650.819	36.41899
651.017	36.22647
651.215	41.17303
651.413	45.67215
651.61	43.48524
651.808	47.49689
652.006	45.54016
652.204	43.09276
652.401	41.23082
652.599	40.87529
652.797	44.62375
652.995	41.04619
653.192	45.93076
653.39	50.58892
653.588	51.65779
653.785	47.94197
653.983	46.76535
654.18	45.46376
654.378	49.33815
654.576	52.62871
654.773	54.35452
654.971	59.18078
655.168	56.31999
655.366	54.78944
655.563	51.17759
655.761	48.50688
655.958	50.55812
656.156	55.33127
656.353	63.97049
656.55	87.01512
656.748	105.54964
656.945	142.13605
657.143	188.45001
657.34	242.98946
657.537	309.55533
657.735	379.8006
657.932	473.51929
658.129	565.56431
658.326	672.26399
658.524	783.964
658.721	893.46551
658.918	990.84845
659.115	1072.60166
659.313	1137.3872
659.51	1197.15026
659.707	1227.61452
659.904	1265.23003
660.101	1283.42829
660.298	1298.25122
660.496	1304.55754
660.693	1299.17315
660.89	1308.62198
661.087	1313.38545
661.284	1328.30331
661.481	1328.77197
661.678	1315.44315
661.875	1295.99064
662.072	1284.574
662.269	1291.26828
662.466	1294.04218
662.663	1294.37067
662.86	1278.97298
663.057	1258.7362
663.254	1243.29979
663.45	1223.47723
663.647	1211.10913
663.844	1186.49537
664.041	1174.15422
664.238	1160.27748
664.435	1160.10189
664.631	1156.493
664.828	1153.49077
665.025	1144.75652
665.222	1125.21931
665.419	1102.88189
665.615	1074.73188
665.812	1045.14627
666.009	1004.51174
666.205	949.70183
666.402	896.99964
666.599	852.46843
666.795	820.42659
666.992	799.52637
667.188	779.45696
667.385	759.67473
667.582	732.09679
667.778	708.59514
667.975	679.22857
668.171	646.77107
668.368	606.99806
668.564	567.3533
668.761	525.59047
668.957	484.02638
669.154	437.97616
669.35	378.7947
669.547	320.91645
669.743	267.92931
669.939	215.11522
670.136	166.70562
670.332	117.80776
670.528	94.531
670.725	73.90719
670.921	58.71638
671.117	45.8262
671.314	44.07471
671.51	44.26689
671.706	42.50752
671.902	38.69204
672.099	41.72506
672.295	41.00934
672.491	40.65591
672.687	36.05864
672.883	38.99076
673.08	34.95598
673.276	37.52881
673.472	42.53705
673.668	45.7325
673.864	40.36135
674.06	37.37363
674.256	39.6738
674.452	41.00834
674.648	38.23793
674.844	35.89329
675.04	43.67999
675.236	43.5759
675.432	40.87285
675.628	42.9201
675.824	44.87913
676.02	49.25668
676.216	46.42195
676.412	45.24593
676.608	44.74616
676.804	47.15646
676.999	56.14615
677.195	54.52048
677.391	46.73609
677.587	43.32191
677.783	48.17622
677.978	48.75938
678.174	48.4611
678.37	42.01402
678.566	44.09794
678.761	38.33229
678.957	42.32765
679.153	45.56352
679.348	49.27496
679.544	51.72606
679.74	47.28754
679.935	47.25933
680.131	46.87104
680.327	52.87013
680.522	47.8587
680.718	38.08269
680.913	35.73692
681.109	36.55
681.304	46.77684
681.5	48.39706
681.695	54.54768
681.891	51.32886
682.086	48.47619
682.282	45.9883
682.477	41.22634
682.672	35.74897
682.868	38.27227
683.063	42.28373
683.259	47.58855
683.454	46.51847
683.649	46.65082
683.845	47.53635
684.04	43.75182
684.235	42.54901
684.43	36.61695
684.626	32.16099
684.821	23.88036
685.016	27.77142
685.211	29.59024
685.407	28.64602
685.602	26.05936
685.797	23.8788
685.992	29.15905
686.187	29.35716
686.382	30.53209
686.577	28.08843
686.773	27.04569
686.968	26.48988
687.163	31.4382
687.358	37.04461
687.553	41.18219
687.748	44.08263
687.943	35.31454
688.138	29.35236
688.333	22.67215
688.528	28.40283
688.723	31.01157
688.918	32.31848
689.112	32.09346
689.307	33.23603
689.502	32.12825
689.697	30.66331
689.892	28.64042
690.087	31.50782
690.282	25.57664
690.476	27.69486
690.671	24.7616
690.866	30.79381
691.061	35.45473
691.255	34.76873
691.45	31.92998
691.645	22.80649
691.84	26.78288
692.034	28.02073
692.229	29.97129
692.424	22.96652
692.618	21.66344
692.813	15.37732
693.007	15.27778
693.202	20.32469
693.397	27.72077
693.591	33.19507
693.786	28.63622
693.98	21.73023
694.175	19.71294
694.369	19.91158
694.564	20.46454
694.758	16.13059
694.953	17.30161
695.147	23.00599
695.342	25.8733
695.536	28.05545
695.73	29.5198
695.925	32.06146
696.119	27.56789
696.313	21.37765
696.508	21.17974
696.702	23.07331
696.896	19.91206
697.091	17.92955
697.285	19.71875
697.479	24.8372
697.673	23.2038
697.868	26.46301
698.062	26.95004
698.256	31.87231
698.45	23.13683
698.644	25.1561
698.839	23.55867
699.033	24.40704
699.227	24.76513
699.421	26.49223
699.615	25.18765
699.809	21.08227
700.003	20.30079
700.197	21.18069
700.391	24.17877
700.585	19.19185
700.779	21.08302
700.973	15.34823
701.167	14.72997
701.361	16.84811
701.555	24.11486
701.749	26.72126
701.943	25.5469
702.137	26.19595
702.331	24.17509
702.525	25.83998
702.718	21.93357
702.912	29.71752
703.106	24.99123
703.3	31.93359
703.494	26.17081
703.687	32.82077
703.881	26.03804
704.075	26.98533
704.269	21.70471
704.462	23.17289
704.656	26.10043
704.85	29.77935
705.043	33.39667
705.237	33.46292
705.431	31.15062
705.624	25.7087
705.818	22.02551
706.012	25.44694
706.205	28.01831
706.399	31.63722
706.592	29.38342
706.786	28.4112
706.979	30.49949
707.173	25.29225
707.366	28.4163
707.56	23.82138
707.753	29.8467
707.947	28.15596
708.14	30.69279
708.333	28.73876
708.527	29.25744
708.72	25.96647
708.914	32.64398
709.107	31.50101
709.3	38.28243
709.494	28.08572
709.687	28.64257
709.88	23.26538
710.073	27.95697
710.267	33.13375
710.46	36.58609
710.653	36.81478
710.846	29.94194
711.04	33.43138
711.233	34.96327
711.426	37.76503
711.619	30.46314
711.812	29.58767
712.005	28.67621
712.198	29.65471
712.391	26.19643
712.585	25.60952
712.778	21.83013
712.971	22.31798
713.164	25.8378
713.357	24.98946
713.55	25.83876
713.743	19.38854
713.936	23.97831
714.129	24.20641
714.322	34.33524
714.514	36.5248
714.707	38.41356
714.9	32.22793
715.093	28.77344
715.286	27.2432
715.479	27.76214
715.672	30.56218
715.864	29.48473
716.057	22.57804
716.25	11.01285
716.443	11.14495
716.636	20.98776
716.828	34.28289
717.021	39.91718
717.214	33.75515
717.406	33.7206
717.599	32.75336
717.792	36.79584
717.984	29.20648
718.177	31.21837
718.37	31.15116
718.562	37.07795
718.755	33.78331
718.947	35.50913
719.14	34.69284
719.333	32.44732
719.525	27.66087
719.718	27.9212
719.91	33.26426
720.103	36.7115
720.295	34.2375
720.487	31.56432
720.68	26.55197
720.872	25.63976
721.065	21.76346
721.257	25.08356
721.449	29.84355
721.642	35.77573
721.834	30.63122
722.026	31.96429
722.219	29.45703
722.411	34.53602
722.603	32.02713
722.796	31.17887
722.988	35.09204
723.18	34.53916
723.372	30.66198
723.565	24.73111
723.757	26.36065
723.949	26.06683
724.141	26.62384
724.333	23.55801
724.525	25.15776
724.717	27.92538
724.91	29.55555
725.102	27.52984
725.294	27.62918
725.486	31.01504
725.678	32.48232
725.87	30.65241
726.062	26.77623
726.254	31.36866
726.446	34.75616
726.638	35.79446
726.83	35.5704
727.022	30.78273
727.213	33.94597
727.405	31.30476
727.597	29.60972
727.789	27.465
727.981	33.71322
728.173	43.55333
728.365	40.13127
728.556	31.30677
728.748	29.87045
728.94	29.93603
729.132	32.1558
729.324	33.03817
729.515	36.59396
729.707	32.8446
729.899	28.96954
730.09	29.61374
730.282	34.55977
730.474	37.06679
730.665	37.68507
730.857	44.10763
731.049	48.66851
731.24	48.57224
731.432	43.91853
731.623	35.38427
731.815	37.20924
732.006	34.4365
732.198	32.44809
732.389	25.83328
732.581	29.71354
732.772	32.64637
732.964	33.36444
733.155	29.77839
733.347	29.84457
733.538	34.66756
733.729	41.2848
733.921	38.45085
734.112	32.71873
734.304	23.75616
734.495	27.37193
734.686	25.80543
734.877	30.49916
735.069	23.78611
735.26	25.64214
735.451	20.5551
735.643	28.50696
735.834	28.63932
736.025	31.14683
736.216	29.02602
736.407	33.78023
736.599	34.73258
736.79	33.92102
736.981	31.44449
737.172	36.55508
737.363	32.96983
737.554	32.15668
737.745	25.18834
737.936	27.85898
738.127	25.45018
738.318	21.95948
738.509	23.78272
738.7	22.0572
738.891	26.62048
739.082	21.89916
739.273	25.12168
739.464	24.69911
739.655	27.92278
739.846	26.71677
740.037	22.41545
740.228	19.97327
740.419	19.42082
740.609	18.76735
740.8	21.14744
740.991	19.09375
741.182	21.76159
741.373	23.74983
741.563	23.36025
741.754	22.02912
741.945	23.95208
742.136	30.07666
742.326	33.46554
742.517	30.72734
742.708	25.9369
742.898	31.27609
743.089	30.00072
743.28	30.45345
743.47	27.0314
743.661	29.09202
743.851	34.7694
744.042	29.36607
744.233	26.52714
744.423	23.23329
744.614	22.67694
744.804	22.55068
744.995	22.80868
745.185	28.74328
745.376	24.92669
745.566	25.77763
745.756	23.22962
745.947	28.21747
746.137	30.36633
746.328	29.55408
746.518	28.31279
746.708	28.18318
746.899	24.24147
747.089	27.92902
747.279	19.68479
747.47	31.3202
747.66	26.94894
747.85	27.01332
748.04	19.70886
748.231	20.29829
748.421	23.55802
748.611	28.51692
748.801	31.54534
748.991	32.19456
749.182	19.48369
749.372	13.9433
749.562	16.88078
749.752	25.48025
749.942	25.54503
750.132	20.09936
750.322	22.6067
750.512	23.45348
750.702	28.8936
750.892	27.30039
751.082	28.67281
751.272	29.61977
751.462	30.7262
751.652	36.10304
751.842	31.11921
752.032	32.06508
752.222	29.29032
752.412	29.28661
752.602	29.18896
752.792	29.81184
752.981	31.04904
753.171	26.62136
753.361	22.15697
753.551	22.74739
753.741	22.41832
753.93	26.75346
754.12	25.05811
754.31	30.72888
754.5	30.13904
754.689	34.31237
754.879	29.61875
755.069	31.83704
755.258	29.74917
755.448	31.05182
755.638	33.65675
755.827	34.27427
756.017	35.77335
756.206	34.50643
756.396	36.65775
756.586	37.60617
756.775	33.7219
756.965	29.54995
757.154	25.73422
757.344	26.5495
757.533	30.8516
757.723	28.73437
757.912	22.87199
758.101	23.55882
758.291	23.59174
758.48	27.04592
758.67	21.31133
758.859	25.64402
759.048	25.41517
759.238	26.32693
759.427	20.0053
759.616	16.97494
759.806	17.00598
759.995	24.37519
760.184	25.15839
760.373	22.68356
760.563	20.52806
760.752	21.83257
760.941	19.16097
761.13	20.79089
761.319	21.53679
761.509	26.71894
761.698	21.44116
761.887	19.97908
762.076	18.18395
762.265	19.22982
762.454	21.5707
762.643	23.65798
762.832	31.2129
763.021	29.88016
763.21	27.92228
763.399	25.8377
763.588	28.37893
763.777	29.32442
763.966	23.13484
764.155	17.75746
764.344	20.62385
764.533	23.84909
764.722	22.77308
764.911	21.79924
765.1	17.7256
765.288	26.68404
765.477	22.41293
765.666	33.29567
765.855	25.18634
766.044	29.55605
766.232	21.99908
766.421	26.85212
766.61	25.54815
766.799	28.67242
766.987	30.92059
767.176	33.55909
767.365	27.46792
767.553	26.54939
767.742	20.84598
767.931	25.7031
768.119	19.8447
768.308	28.51315
768.497	27.36858
768.685	31.60219
768.874	29.15592
769.062	24.66113
769.251	23.3935
769.439	19.64795
769.628	24.21035
769.816	22.31924
770.005	19.74433
770.193	20.49621
770.382	23.20191
770.57	30.9239
770.758	31.90302
770.947	30.30436
771.135	19.91197
771.323	17.72603
771.512	22.42365
771.7	26.03729
771.888	20.62698
772.077	17.33364
772.265	16.42488
772.453	22.4181
772.642	20.88603
772.83	23.00262
773.018	15.24969
773.206	17.17412
773.394	18.31465
773.583	22.12995
773.771	21.31135
773.959	24.18022
774.147	22.71038
774.335	19.9415
774.523	13.2943
774.711	13.8834
774.899	11.96116
775.087	12.15727
775.275	13.39285
775.463	22.00158
775.651	24.41248
775.839	25.22925
776.027	18.57778
776.215	17.40747
776.403	18.38068
776.591	20.75926
776.779	15.02057
776.967	13.98266
777.155	8.93043
777.343	17.04999
777.531	11.24792
777.718	14.90017
777.906	11.43994
778.094	17.56744
778.282	15.41288
778.47	17.20402
778.657	19.55015
778.845	26.0352
779.033	31.01829
779.22	28.27914
779.408	32.77291
779.596	32.22168
779.783	35.47823
779.971	35.41373
780.159	36.87662
780.346	44.95769
780.534	45.76811
780.722	53.93995
780.909	53.22135
781.097	53.8074
781.284	46.87225
781.472	46.48063
781.659	50.39629
781.847	50.07094
782.034	50.41793
782.222	44.71577
782.409	48.58761
782.597	52.29794
782.784	52.87238
782.971	56.78502
783.159	52.30057
783.346	52.40917
783.533	48.30258
783.721	44.46128
783.908	43.54363
784.095	38.20688
784.283	42.3773
784.47	49.1203
784.657	56.82832
784.844	55.91928
785.032	48.92234
785.219	40.30143
785.406	47.20294
785.593	48.20893
785.78	55.93042
785.968	47.03957
786.155	52.89358
786.342	46.66714
786.529	47.74039
786.716	41.53094
786.903	44.9794
787.09	45.50908
787.277	38.79868
787.464	34.9924
787.651	33.84971
787.838	36.88022
788.025	37.14454
788.212	28.3793
788.399	27.269
788.586	27.76052
788.773	30.53089
788.96	33.50569
789.147	24.12138
789.334	22.62239
789.521	16.39068
789.707	24.70052
789.894	28.34908
790.081	23.46337
790.268	15.83736
790.455	11.07918
790.641	10.91558
790.828	8.79754
791.015	8.01737
791.202	9.9396
791.388	15.74205
791.575	18.2847
791.762	16.36254
791.948	7.33426
792.135	7.16785
792.322	5.04972
792.508	16.06455
792.695	15.74119
792.881	19.22852
793.068	12.15754
793.254	13.39628
793.441	13.13503
793.627	18.05481
793.814	14.63401
794	13.68908
794.187	8.05166
794.373	8.70095
794.56	10.46044
794.746	14.14147
794.933	15.90341
795.119	17.01011
795.305	16.55917
795.492	11.2127
795.678	10.52916
795.864	11.69817
796.051	18.50943
796.237	16.09889
796.423	13.42716
796.61	6.25794
796.796	10.82169
796.982	6.81309
797.168	4.00971
797.355	2.4118
797.541	4.53034
797.727	11.96161
797.913	10.59219
798.099	9.54941
798.285	7.16976
798.471	3.16187
798.658	6.29074
798.844	5.11779
799.03	8.11587
799.216	9.22035
799.402	10.88149
799.588	12.64182
799.774	12.774
799.96	20.039
800.146	21.56944
800.332	18.3435
800.518	10.75276
800.704	5.18051
800.89	15.84012
801.075	10.30033
801.261	16.3958
801.447	2.86888
801.633	9.94225
801.819	9.64839
802.005	10.36547
802.19	12.28658
802.376	8.99498
802.562	17.20724
802.748	13.29741
802.934	13.39556
803.119	7.04128
803.305	9.32057
803.491	13.85256
803.676	14.69998
803.862	12.97426
804.048	7.52887
804.233	8.08195
804.419	9.06051
804.605	5.73575
804.79	7.69195
804.976	5.05112
805.161	7.82222
805.347	2.70535
805.532	6.32288
805.718	5.11659
805.903	8.11553
806.089	0.87989
806.274	5.73649
806.46	3.48725
806.645	5.44332
806.831	3.55368
807.016	6.81238
807.201	10.13757
807.387	9.22355
807.572	8.31184
807.757	7.43111
807.943	12.12574
808.128	15.64382
808.313	11.57006
808.499	10.20079
808.684	7.62837
808.869	9.81165
809.054	6.61775
809.24	-1.82411
809.425	4.56511
809.61	5.47728
809.795	5.63957
809.98	4.10577
810.165	-2.86805
810.35	7.55996
810.536	6.35466
810.721	12.93692
810.906	3.35741
811.091	-0.81409
811.276	-0.78045
811.461	-3.09473
811.646	-7.42976
811.831	-10.85281
812.016	1.14171
812.201	3.06446
812.386	4.72694
812.571	2.0521
812.756	11.66754
812.941	12.319
813.125	13.36281
813.31	6.25744
813.495	5.14954
813.68	3.91119
813.865	5.37781
814.05	7.20324
814.234	6.42021
814.419	2.24893
814.604	-1.30444
814.789	-4.13899
814.973	1.53206
815.158	7.82308
815.343	12.71266
815.528	12.64769
815.712	7.53039
815.897	4.40053
816.081	6.71433
816.266	9.09405
816.451	12.12596
816.635	8.24706
816.82	7.49768
817.004	7.59494
817.189	10.46362
817.374	14.43762
817.558	10.65689
817.743	11.79608
817.927	10.49368
818.111	16.97919
818.296	19.68541
818.48	18.31744
818.665	15.58006
818.849	9.84287
819.034	9.87493
819.218	9.6154
819.402	12.90971
819.587	15.5136
819.771	10.42783
819.955	6.12329
820.14	5.96445
820.324	11.34114
820.508	10.59229
820.692	9.32043
820.877	5.70358
821.061	4.20395
821.245	9.12547
821.429	7.36561
821.613	12.09351
821.798	13.00416
821.982	12.93865
822.166	9.77549
822.35	-1.27142
822.534	2.05314
822.718	4.7921
822.902	5.67208
823.086	3.65155
823.27	6.3235
823.454	8.63771
823.638	9.68065
823.822	0.52102
824.006	2.70537
824.19	3.97676
824.374	8.89933
824.558	7.79022
824.742	5.76883
824.926	11.14688
825.11	11.50529
825.294	11.34283
825.477	4.66053
825.661	3.03206
825.845	2.93434
826.029	5.93205
826.213	9.48546
826.396	14.40704
826.58	11.70256
826.764	7.75721
826.948	3.29141
827.131	3.35698
827.315	-2.02155
827.499	-1.17366
827.682	-2.08647
827.866	1.82533
828.05	1.53185
828.233	1.36883
828.417	5.6049
828.6	4.62722
828.784	7.00559
828.967	2.80212
829.151	6.55094
829.335	5.08539
829.518	6.61698
829.701	7.62728
829.885	11.24625
830.068	9.61686
830.252	3.71692
830.435	4.10585
830.619	1.07448
830.802	8.8322
830.985	3.81375
831.169	3.58585
831.352	-0.61888
831.535	0.55433
831.719	8.86589
831.902	7.36634
832.085	8.17997
832.269	3.29068
832.452	3.4536
832.635	2.50995
832.818	7.04093
833.002	10.29893
833.185	11.11324
833.368	7.69116
833.551	4.82379
833.734	4.88943
833.917	2.24925
834.1	3.45681
834.284	10.13965
834.467	13.43055
834.65	13.46195
834.833	10.16852
835.016	12.15699
835.199	10.59267
835.382	7.62767
835.565	3.42314
835.748	2.67338
835.931	5.24764
836.114	11.47392
836.297	10.59391
836.479	4.92277
836.662	7.10806
836.845	9.22633
837.028	10.33426
837.211	3.74775
837.394	6.4866
837.577	12.87399
837.759	15.44881
837.942	10.91758
838.125	6.16002
838.308	0.87983
838.49	6.74212
838.673	8.66477
838.856	15.47869
839.039	8.019
839.221	2.15233
839.404	-1.40207
839.587	-1.27176
839.769	1.30309
839.952	2.21573
840.134	11.99687
840.317	10.8234
840.499	5.08794
840.682	0.62019
840.865	2.57569
841.047	6.71443
841.23	1.27106
841.412	-1.04266
841.595	0.03222
841.777	0.09719
841.959	2.93297
842.142	1.69462
842.324	3.29181
842.507	1.98777
842.689	-2.18422
842.871	-3.03137
843.054	-3.12931
843.236	2.44453
843.418	5.83454
843.601	7.75784
843.783	1.30581
843.965	2.80525
844.147	5.44376
844.33	12.71095
844.512	11.34164
844.694	11.99533
844.876	11.40756
845.059	21.08636
845.241	12.80742
845.423	9.77703
845.605	-7.07029
845.787	-0.71449
845.969	2.05456
846.151	9.12555
846.333	9.90732
846.515	5.57398
846.697	6.19142
846.879	7.03913
847.061	14.46848
847.243	17.11104
847.425	18.12134
847.607	18.83818
847.789	20.62836
847.971	23.91566
848.153	25.97048
848.335	28.31646
848.517	25.97355
848.699	27.99127
848.881	26.6891
849.062	29.84804
849.244	27.43511
849.426	24.6316
849.608	25.70662
849.789	25.5442
849.971	25.73876
850.153	25.41148
850.335	24.2389
850.516	24.56732
850.698	20.4656
850.88	20.85641
851.061	26.22569
851.243	29.80541
851.425	30.58972
851.606	29.74988
851.788	33.03921
851.969	34.40821
852.151	27.49672
852.333	21.17948
852.514	22.67255
852.696	24.66214
852.877	21.30718
853.059	23.48923
853.24	18.92524
853.422	24.65878
853.603	18.89528
853.784	27.69476
853.966	25.57645
854.147	26.33093
854.329	24.66558
854.51	27.0165
854.691	23.07017
854.873	19.68556
855.054	22.80876
855.235	26.55866
855.416	32.77742
855.598	23.49166
855.779	16.9726
855.96	8.24437
856.141	14.37277
856.323	18.77058
856.504	21.18275
856.685	14.04483
856.866	7.49636
857.047	4.92204
857.228	-1.33501
857.409	3.55317
857.591	3.06409
857.772	10.52755
857.953	9.12644
858.134	7.13791
858.315	-0.25955
858.496	4.53312
858.677	6.74907
858.858	7.3663
859.039	-2.54359
859.22	-3.52001
859.401	2.70614
859.582	6.35705
859.762	12.77501
859.943	13.03599
860.124	18.34888
860.305	12.97258
860.486	7.26858
860.667	2.70582
860.848	3.553
861.028	5.05205
861.209	9.84336
861.39	5.7045
861.571	2.05383
861.751	-6.8124
861.932	-3.81403
862.113	7.07577
862.293	13.1048
862.474	11.57352
862.655	7.8541
862.835	11.40844
863.016	11.70157
863.197	9.15971
863.377	4.727
863.558	-2.44449
863.738	-6.19269
863.919	-6.51912
864.099	2.80423
864.28	9.97289
864.46	9.28789
864.641	5.70184
864.821	4.72586
865.002	3.58541
865.182	-0.22872
865.363	-0.94547
865.543	3.42248
865.723	11.37723
865.904	4.07625
866.084	-0.06378
866.264	-6.48505
866.445	0.84855
866.625	1.56493
866.805	5.05157
866.986	2.9652
867.166	-1.53146
867.346	-2.34629
867.526	-3.87821
867.707	-0.35887
867.887	0.03226
868.067	5.99491
868.247	4.69141
868.427	5.441
868.607	-0.61952
868.788	0.06496
868.968	-2.08594
869.148	-3.03029
869.328	-0.74846
869.508	-3.09542
869.688	-2.67256
869.868	-3.58517
870.048	-4.56395
870.228	-0.75022
870.408	2.28254
870.588	6.87905
870.768	7.69392
870.948	8.89637
871.128	7.42957
871.307	7.00582
871.487	-0.91155
871.667	3.55469
871.847	6.65193
872.027	10.72445
872.207	11.47454
872.387	9.15986
872.566	11.44052
872.746	7.43037
872.926	2.57356
873.106	4.88947
873.285	9.64885
873.465	11.66971
873.645	9.81316
873.824	7.30378
874.004	9.81387
874.184	2.7717
874.363	0.88022
874.543	0.87989
874.723	7.17105
874.902	9.45243
875.082	9.58336
875.261	8.57147
875.441	5.47529
875.62	3.42121
875.8	-0.42372
875.979	3.16073
876.159	2.11773
876.338	4.66001
876.518	4.95381
876.697	5.11676
876.876	4.07397
877.056	2.70494
877.235	3.3569
877.415	1.10796
877.594	-0.87978
877.773	-2.67228
877.953	-0.8472
878.132	4.36697
878.311	3.25844
878.49	2.44366
878.67	-3.55258
878.849	6.09596
879.028	11.2784
879.207	16.75356
879.387	12.28798
879.566	8.40927
879.745	8.34311
879.924	2.21441
880.103	6.25661
880.282	4.17259
880.461	8.28079
880.64	0.58849
880.819	1.59933
880.998	4.10762
881.178	6.35594
881.357	6.97393
881.536	-2.15315
881.715	1.23732
881.893	-2.54303
882.072	5.08517
882.251	5.15069
882.43	6.48709
882.609	13.46176
882.788	7.82233
882.967	4.92087
883.146	1.3697
883.325	10.13769
883.503	10.56154
883.682	6.06291
883.861	3.03202
884.04	1.82603
884.219	5.18356
884.397	3.65013
884.576	9.87484
884.755	14.33967
884.933	17.73028
885.112	19.23144
885.291	10.85476
885.469	6.32412
885.648	3.42219
885.827	7.79196
886.005	7.98754
886.184	1.5331
886.363	2.86963
886.541	4.66291
886.72	8.96456
886.898	8.21381
887.077	9.74472
887.255	11.31153
887.434	5.0197
887.612	2.0542
887.791	7.23479
887.969	12.48419
888.147	11.53871
888.326	1.72925
888.504	1.82533
888.682	8.86599
888.861	15.05783
889.039	9.87517
889.218	11.40782
889.396	11.31094
889.574	14.01612
889.752	7.46328
889.931	-0.39163
890.109	3.943
890.287	5.27997
890.465	7.5282
890.643	5.93065
890.822	3.3555
891	10.16666
891.178	8.93078
891.356	6.12747
891.534	4.63098
891.712	3.52099
891.89	13.52838
892.068	9.09409
892.247	10.20326
892.425	4.88973
892.603	7.62783
892.781	2.57451
892.959	-4.92106
893.137	-6.06174
893.314	-3.87745
893.492	-0.22872
893.67	3.09438
893.848	4.85418
894.026	7.49487
894.204	-1.95492
894.382	2.74067
894.56	0.91544
894.738	2.34758
894.915	-1.46807
895.093	1.49829
895.271	5.89942
895.449	4.6935
895.626	10.98516
895.804	15.54674
895.982	18.57855
896.16	11.37457
896.337	6.1611
896.515	-0.42353
896.693	-2.02104
896.87	-1.1408
897.048	-0.0648
897.225	2.05356
897.403	3.87855
897.581	9.71059
897.758	9.90652
897.936	7.59247
898.113	-5.70539
898.291	-4.07563
898.468	-2.47872
898.646	7.3987
898.823	4.92122
899.001	1.85727
899.178	-2.28173
899.356	0.16308
899.533	3.84665
899.71	11.60566
899.888	11.08278
900.065	10.66006
900.242	13.88503
900.42	14.92977
900.597	15.51469
900.774	8.76831
900.952	5.93265
901.129	5.99892
901.306	6.87823
901.483	9.22434
901.661	7.5943
901.838	11.27821
902.015	14.30964
902.192	16.65761
902.369	12.15898
902.546	5.05335
902.723	2.18377
902.901	2.67275
903.078	1.79286
903.255	4.53076
903.432	5.28018
903.609	2.83506
903.786	3.22739
903.963	2.70482
904.14	5.96454
904.317	2.11715
904.494	3.29147
904.671	9.87785
904.848	19.19875
905.024	12.22328
905.201	6.32148
905.378	0.26036
905.555	1.695
905.732	4.75921
905.909	-3.38626
906.086	-1.39761
906.262	-2.60421
906.439	12.29134
906.616	17.6034
906.793	14.83278
906.969	9.94088
907.146	5.54157
907.323	3.71604
907.5	-0.74997
907.676	-2.34742
907.853	0.87996
908.03	5.37719
908.206	11.04996
908.383	15.09159
908.559	15.18984
908.736	6.15934
908.912	0.39004
909.089	-6.0301
909.266	-3.45503
909.442	-2.47697
909.619	-0.52182
909.795	0.00007
909.972	-1.53177
910.148	0.91325
910.324	3.42338
910.501	8.15112
910.677	9.97784
910.854	10.23814
911.03	3.78151
911.206	0.87788
911.383	-5.18558
911.559	-3.22843
911.735	-9.32322
911.912	-0.49004
912.088	-0.22941
912.264	8.43923
912.44	4.88763
912.617	5.11547
912.793	0.65184
912.969	1.75966
913.145	-1.30442
913.321	-3.61934
913.498	-5.11871
913.674	1.4011
913.85	-0.42297
914.026	-2.28045
914.202	-4.00836
914.378	0.68476
914.554	1.69496
914.73	3.1278
914.906	0.65046
915.082	4.72439
915.258	7.82358
915.434	10.17053
915.61	9.48731
915.786	7.00914
915.962	8.21595
916.138	10.23639
916.314	2.31452
916.49	1.2707
916.665	-1.7601
916.841	3.32558
917.017	-0.19471
917.193	-2.6728
917.369	-7.13771
917.545	-1.36743
917.72	-2.05201
917.896	4.2055
918.072	1.72726
918.247	5.54096
918.423	4.79152
918.599	13.78761
918.775	15.58069
918.95	8.57556
919.126	-3.77721
919.301	-6.71132
919.477	0.13089
919.653	6.77963
919.828	4.59596
920.004	3.35731
920.179	7.0298
920.355	7.97498
920.53	13.64645
920.706	8.80018
920.881	8.76749
921.057	5.3446
921.232	7.30167
921.408	8.54099
921.583	9.38872
921.759	0.61983
921.934	-0.13036
922.109	-2.86827
922.285	2.24939
922.46	-0.6522
922.635	-0.48917
922.811	-1.07616
922.986	2.18398
923.161	2.02095
923.336	-0.55311
923.512	1.04295
923.687	0.39093
923.862	0.19525
924.037	-1.43383
924.212	-0.52103
924.388	3.22667
924.563	1.8254
924.738	1.66241
924.913	-0.91276
925.088	-1.40156
925.263	1.3372
925.438	6.61712
925.613	7.23645
925.788	1.59626
925.963	-1.20615
926.138	-2.86846
926.313	5.2492
926.488	4.98822
926.663	3.1964
926.838	-4.59555
927.013	-7.36678
927.188	-2.60871
927.363	-0.09818
927.538	-1.14103
927.713	2.08534
927.888	6.06321
928.062	6.32476
928.237	1.04461
928.412	-2.05312
928.587	1.27126
928.761	3.3571
928.936	4.33549
929.111	4.07469
929.286	8.34503
929.46	5.93226
929.635	5.70415
929.81	-0.65197
929.984	-1.72756
930.159	2.86925
930.334	1.72789
930.508	5.31335
930.683	3.35714
930.857	8.34576
931.032	6.03145
931.206	1.63043
931.381	-1.66262
931.556	0.97732
931.73	11.37863
931.904	8.44517
932.079	4.04586
932.253	-4.07353
932.428	-3.29187
932.602	-0.00024
932.777	3.65142
932.951	4.72765
933.125	3.5866
933.3	1.56411
933.474	6.84579
933.648	7.79101
933.823	4.40187
933.997	-1.56428
934.171	-6.25817
934.345	-6.38863
934.52	-5.89975
934.694	1.89177
934.868	6.22791
935.042	14.47396
935.217	8.34422
935.391	2.70407
935.565	-5.86793
935.739	-3.94398
935.913	-0.35873
936.087	2.73805
936.261	2.70539
936.435	5.965
936.609	4.98689
936.783	10.33281
936.957	6.94325
937.131	5.37858
937.305	1.20635
937.479	5.8019
937.653	5.50863
937.827	5.24759
938.001	5.41117
938.175	7.17112
938.349	5.47617
938.523	0.55382
938.697	-5.7374
938.87	-3.48853
939.044	-1.30453
939.218	6.25698
939.392	7.39913
939.566	7.52928
939.739	4.92268
939.913	4.62878
940.087	1.33691
940.261	8.67067
940.434	10.10347
940.608	7.17055
940.782	-3.42314
940.955	-9.68026
941.129	-11.11597
941.302	-8.05176
941.476	-4.46625
941.65	-4.13955
941.823	-1.95551
941.997	-0.09794
942.17	3.25921
942.344	8.6361
942.517	9.71274
942.691	7.36655
942.864	-0.03144
943.038	-4.36754
943.211	1.01079
943.385	-4.65757
943.558	-6.21975
943.731	-7.98045
943.905	-1.07325
944.078	-1.59668
944.251	-1.23783
944.425	-1.98754
944.598	0.19572
944.771	4.0417
944.945	4.69365
945.118	7.36615
945.291	2.73765
945.464	1.46634
945.638	1.49864
945.811	3.71442
945.984	5.37677
946.157	5.57347
946.33	-0.52163
946.503	-1.23865
946.677	2.7376
946.85	8.24704
947.023	9.22474
947.196	7.85678
947.369	10.43196
947.542	10.26913
947.715	9.5504
947.888	3.29165
948.061	1.95519
948.234	1.20561
948.407	4.56321
948.58	4.13962
948.753	-3.09643
948.926	-0.9772
949.099	-2.24857
949.271	0.39191
949.444	-4.14017
949.617	-4.40138
949.79	-5.64012
949.963	-1.98887
950.136	-0.6522
950.308	3.5524
950.481	-1.07578
950.654	1.27149
950.827	-5.28231
950.999	-4.46788
951.172	-4.59829
951.345	-1.75967
951.517	0.03334
951.69	2.64054
951.863	7.7253
952.035	9.32248
952.208	4.04156
952.381	2.28118
952.553	-2.21777
952.726	-2.7389
952.898	-3.55365
953.071	-4.5305
953.243	-1.04195
953.416	-3.45332
953.588	2.54453
953.761	3.03279
953.933	2.02127
954.106	-1.95607
954.278	-0.29397
954.45	3.97644
954.623	2.02009
954.795	-2.86862
954.967	-8.70443
955.14	-3.25996
955.312	-1.53258
955.484	3.52078
955.657	0.13016
955.829	1.1406
956.001	-3.12971
956.173	4.33534
956.346	4.27087
956.518	12.19277
956.69	4.69498
956.862	-2.77013
957.034	-5.37819
957.207	-8.21274
957.379	-0.22668
957.551	1.46722
957.723	2.7359
957.895	3.1922
958.067	0.91111
958.239	3.94414
958.411	3.0639
958.583	1.04314
958.755	1.53219
958.927	1.14089
959.099	3.6831
959.271	3.1614
959.443	3.61842
959.615	-1.53108
959.787	1.43521
959.959	-2.64046
960.13	2.37902
960.302	-0.75022
960.474	-2.21792
960.646	1.79041
960.818	7.10555
960.99	11.76863
961.161	8.02085
961.333	5.60738
961.505	9.02943
961.677	10.23356
961.848	7.75576
962.02	6.51807
962.192	-0.55377
962.363	4.07362
962.535	0.81332
962.707	5.47504
962.878	5.08508
963.05	7.10659
963.221	6.48723
963.393	0.3271
963.564	2.57559
963.736	0.65234
963.907	-1.17296
964.079	-9.35399
964.25	-2.54143
964.422	6.45555
964.593	2.99894
964.765	-0.45648
964.936	-6.45531
965.108	2.44416
965.279	0.19523
965.45	6.64977
965.622	6.25897
965.793	5.31351
965.964	1.10919
966.136	-1.82489
966.307	3.32477
966.478	1.59609
966.65	2.63902
966.821	1.72757
966.992	-0.16282
967.163	-0.91223
967.334	-1.43412
967.506	2.21683
967.677	7.36743
967.848	0.9456
968.019	1.23954
968.19	-4.56331
968.361	-1.07534
968.532	-0.16315
968.703	4.43316
968.874	8.37696
969.045	4.53011
969.216	3.32454
969.387	-0.16282
969.558	-0.55401
969.729	-1.49959
969.9	-8.4731
970.071	-10.52683
970.242	-10.10311
970.413	0.58645
970.584	6.09566
970.755	5.28088
970.926	1.36942
971.097	-3.68291
971.267	1.33768
971.438	4.30382
971.609	4.46701
971.78	-1.07564
971.951	-4.72595
972.121	3.45523
972.292	9.41976
972.463	14.43972
972.633	9.28959
972.804	3.97744
972.975	6.32321
973.145	8.60477
973.316	15.87358
973.487	5.86683
973.657	7.53148
973.828	-0.19382
973.998	3.5876
974.169	-3.94486
974.339	-2.02181
974.51	-1.14193
974.68	4.49734
974.851	10.52994
975.021	10.43251
975.192	10.3352
975.362	1.59706
975.533	3.71502
975.703	0.03171
975.874	3.32491
976.044	7.00763
976.214	8.40919
976.385	4.10527
976.555	-0.06542
976.725	-2.99819
976.896	-3.61831
977.066	-4.62955
977.236	-1.85976
977.406	3.45458
977.577	2.34667
977.747	-2.54284
977.917	2.77003
978.087	-0.35922
978.257	8.67075
978.427	1.56517
978.598	4.36854
978.768	-0.48907
978.938	-3.32439
979.108	2.14906
979.278	5.21384
979.448	10.10232
979.618	7.69261
979.788	1.72672
979.958	-1.62995
980.128	-2.57463
980.298	2.31526
980.468	6.6813
980.638	9.35471
980.808	1.92231
980.978	4.43396
981.148	0.2934
981.317	4.85628
981.487	-0.61991
981.657	-0.62001
981.827	2.37973
981.997	5.57406
982.167	5.41122
982.336	4.85684
982.506	2.57496
982.676	2.1186
982.846	-2.47721
983.015	0.16423
983.185	-3.02951
983.355	3.13036
983.524	-6.4886
983.694	-6.88082
983.864	-7.27133
984.033	-0.0977
984.203	1.85804
984.372	-2.70583
984.542	-5.93326
984.712	-3.81408
984.881	-0
985.051	-4.1722
985.22	-8.96505
985.39	-12.81142
985.559	-11.31128
985.728	-2.99712
985.898	-2.50818
986.067	0.13183
986.237	-5.50794
986.406	-1.79197
986.576	3.84751
986.745	7.13964
986.914	3.74997
987.084	2.08782
987.253	1.43589
987.422	1.92429
987.591	-0.26078
987.761	-3.26008
987.93	-1.89083
988.099	-0.06493
988.268	-0.12963
988.438	-0.29257
988.607	-4.00902
988.776	-7.3669
988.945	-6.32378
989.114	-5.50908
989.283	1.40182
989.452	-1.27129
989.621	1.72756
989.791	-5.77099
989.96	-4.59736
990.129	-6.19426
990.298	-1.62996
990.467	-2.31478
990.636	-3.88003
990.805	-5.41155
990.974	2.34893
991.142	5.9338
991.311	7.07553
991.48	4.6278
991.649	0.81503
991.818	0.84592
991.987	-2.4455
992.156	3.29288
992.325	4.43441
992.493	7.48691
992.662	3.44373
992.831	-1.31313
993	-3.48525
993.168	-3.45259
993.337	3.87932
993.506	1.10818
993.675	2.73792
993.843	1.59735
994.012	4.30255
994.181	3.65085
994.349	4.59624
994.518	8.70469
994.686	11.66865
994.855	9.12575
995.024	0.2589
995.192	-1.04339
995.361	-3.19496
995.529	-5.28127
995.698	-10.10544
995.866	-6.51975
996.035	3.19226
996.203	5.93108
996.371	4.00786
996.54	1.95511
996.708	2.41096
996.877	8.89821
997.045	-0.32474
997.213	-0.91119
997.382	-5.5077
997.55	7.62423
997.718	2.01768
997.887	5.47336
998.055	0.91299
998.223	6.84526
998.391	8.60509
998.56	9.09423
998.728	9.64863
998.896	4.72677
999.064	2.64061
999.232	5.86668
999.401	8.27813
999.569	8.70223
999.737	2.50976
999.905	-0.03233
1000.073	-2.24894
1000.241	-5.34718
1000.409	-10.00832
1000.577	-11.47588
1000.745	1.69393
1000.913	6.12678
1001.081	10.43032
1001.249	-0.61886
1001.417	-0.55347
1001.585	0.61972
1001.753	1.85776
1001.921	-0.16346
1002.089	-2.90159
1002.256	-1.82551
1002.424	-3.81367
1002.592	-1.23842
1002.76	-4.30249
1002.928	2.15305
1003.096	1.69637
1003.263	-4.62754
1003.431	-5.37789
1003.599	-11.05007
1003.767	-4.04196
1003.934	-3.97691
1004.102	-1.30319
1004.27	2.15218
1004.437	-2.05417
1004.605	-7.72491
1004.773	-3.94432
1004.94	2.44616
1005.108	9.19235
1005.275	1.98912
1005.443	3.87667
1005.61	0.91104
1005.778	4.30146
1005.945	-0.5855
1006.113	-2.41187
1006.28	-0.94518
1006.448	4.59663
1006.615	3.1622
1006.783	1.53235
1006.95	-11.41054
1007.118	-2.25057
1007.285	-5.93361
1007.452	0.71719
1007.62	-1.14066
1007.787	-2.38025
1007.954	-3.5862
1008.122	-5.02031
1008.289	0.81573
1008.456	8.21437
1008.623	7.00818
1008.791	5.01913
1008.958	-4.75943
1009.125	-5.47572
1009.292	-6.1276
1009.459	-0.38993
1009.627	-1.20569
1009.794	-2.05263
1009.961	-8.70238
1010.128	-3.68253
1010.295	-1.3686
1010.462	5.83507
1010.629	0.94561
1010.796	-0.87997
1010.963	-4.10708
1011.13	-1.30377
1011.297	-1.8256
1011.464	-4.00957
1011.631	-1.30471
1011.798	2.18337
1011.965	3.84573
1012.132	3.68332
1012.299	1.59715
1012.466	4.40041
1012.633	1.27097
1012.799	1.43389
1012.966	-0.8151
1013.133	0.97756
1013.3	5.96506
1013.467	3.29165
1013.633	0.39121
1013.8	-3.29218
1013.967	-5.70457
1014.134	-4.75931
1014.3	-3.09697
1014.467	3.45566
1014.634	3.09703
1014.8	-0.06484
1014.967	-4.43311
1015.134	2.21608
1015.3	10.26734
1015.467	18.97142
1015.633	16.20147
1015.8	11.89934
1015.966	4.76022
1016.133	-1.04158
1016.3	3.06815
1016.466	7.20692
1016.632	12.03066
1016.799	3.35704
1016.965	-2.18356
1017.132	-1.62987
1017.298	0.78209
1017.465	4.49746
1017.631	-1.24029
1017.797	-1.95744
1017.964	-1.07694
1018.13	3.25928
1018.296	0.5857
1018.463	-0.35925
1018.629	3.39082
1018.795	1.01103
1018.961	1.23869
1019.128	-2.41366
1019.294	4.59563
1019.46	7.92129
1019.626	9.84403
1019.792	13.10228
1019.959	11.66907
1020.125	4.33559
1020.291	3.78401
1020.457	5.57399
1020.623	8.93106
1020.789	6.42042
1020.955	-0.8469
1021.121	1.01116
1021.287	-2.64024
1021.453	-0.88029
1021.619	0.22885
1021.785	-1.88989
1021.951	0.91387
1022.117	-3.19361
1022.283	0.19628
1022.449	-1.10772
1022.615	1.53213
1022.781	3.29166
1022.946	-1.8261
1023.112	-3.22694
1023.278	-5.18197
1023.444	-2.47661
1023.61	-0.2603
1023.775	-4.4988
1023.941	-3.81444
1024.107	-8.93387
1024.273	0.75024
1024.438	1.40233
1024.604	11.33556
1024.77	3.0879
1024.935	2.30535
1025.101	1.82654
1025.267	2.90081
1025.432	7.72664
1025.598	-2.28044
1025.763	1.01184
1025.929	1.82527
1026.095	4.00928
1026.26	2.70561
1026.426	-5.60621
1026.591	-3.29203
1026.757	-4.40032
1026.922	4.59507
1027.087	4.46465
1027.253	2.18249
1027.418	-1.82586
1027.584	-1.17384
1027.749	4.62851
1027.914	8.34694
1028.08	12.29143
1028.245	6.22898
1028.41	0.8482
1028.576	-1.01024
1028.741	1.69487
1028.906	1.72752
1029.072	-4.69455
1029.237	-1.53289
1029.402	-1.04418
1029.567	5.89943
1029.732	1.92247
1029.898	6.45347
1030.063	-0.03381
1030.228	-2.50983
1030.393	-5.86744
1030.558	-2.4116
1030.723	1.14056
1030.888	-1.62999
1031.053	3.81352
1031.218	0.91266
1031.383	3.0968
1031.548	0.0662
1031.713	4.53146
1031.878	2.96667
1032.043	1.43364
1032.208	7.59653
1032.373	8.21602
1032.538	7.59701
1032.703	0.09793
1032.868	6.97892
1033.033	2.93746
1033.198	2.38327
1033.362	0.2609
1033.527	-0.22804
1033.692	3.84623
1033.857	-0.5213
1034.021	5.96458
1034.186	3.25947
1034.351	2.05332
1034.516	0.09776
1034.68	1.72691
1034.845	-0.58712
1035.01	1.82588
1035.174	-0.03153
1035.339	4.17304
1035.504	5.24689
1035.668	10.52913
1035.833	7.66054
1035.997	5.05384
1036.162	3.84786
1036.326	2.57653
1036.491	-0.42219
1036.655	-0.42524
1036.82	5.7682
1036.984	11.3084
1037.149	3.09539
1037.313	0.09674
1037.478	-4.40037
1037.642	0.55479
1037.807	-2.73734
1037.971	-2.67213
1038.135	-1.04264
1038.3	3.65067
1038.464	8.05146
1038.628	4.07498
1038.792	4.43474
1038.957	3.55337
1039.121	2.28156
1039.285	-1.40248
1039.449	-2.51003
1039.614	0.5543
1039.778	-4.82204
1039.942	-9.25486
1040.106	-10.98255
1040.27	-0.91318
1040.434	1.79203
1040.599	6.3568
1040.763	7.27187
1040.927	12.52012
1041.091	8.54197
1041.255	5.44367
1041.419	3.16146
1041.583	1.76015
1041.747	-4.76042
1041.911	-6.97679
1042.075	-9.68416
1042.239	-1.73014
1042.403	0.9744
1042.567	10.26509
1042.731	10.62423
1042.894	4.53047
1043.058	1.63073
1043.222	-5.31058
1043.386	-1.26963
1043.55	-6.35477
1043.714	0.78321
1043.877	-0.48777
1044.041	3.52112
1044.205	5.18336
1044.369	10.72588
1044.532	7.85793
1044.696	7.23861
1044.86	-2.18171
1045.023	-6.42001
1045.187	-12.35304
1045.351	-6.68175
1045.514	3.22729
1045.678	7.00851
1045.841	7.78992
