Data from H2O_Subt9__1__00041.txt Node

Date: Tue Nov 04 10:20:30 EST 2025
User: brett
Spectrometer: USB4F03499
Trigger mode: 4
Integration Time (sec): 3.000000E-2
Scans to average: 15
Electric dark correction enabled: true
Nonlinearity correction enabled: true
Boxcar width: 1
XAxis mode: Wavelengths
Number of Pixels in Spectrum: 3648
>>>>>Begin Spectral Data<<<<<
345.386	-13.71899
345.605	-13.71899
345.824	-9.28196
346.044	-5.66025
346.263	-0.99492
346.482	-0.2451
346.701	-0.669
346.92	-4.22319
347.139	-5.36398
347.358	-6.50236
347.577	-0.82834
347.796	3.70237
348.015	8.75339
348.234	9.11096
348.453	-0.14676
348.672	-1.58129
348.891	-8.65474
349.11	4.35087
349.329	1.87336
349.548	9.62986
349.767	14.09755
349.986	23.84074
350.205	25.66896
350.424	19.80212
350.643	17.62177
350.862	12.73074
351.08	7.05713
351.299	8.39111
351.518	11.71585
351.737	17.09105
351.956	20.57596
352.174	24.84465
352.393	25.27069
352.612	20.87216
352.831	23.02652
353.049	29.57275
353.268	31.72272
353.487	32.86295
353.705	21.72196
353.924	25.10886
354.143	27.15699
354.361	32.72878
354.58	33.77506
354.798	31.1672
355.017	35.01183
355.236	35.40122
355.454	32.66469
355.673	31.78218
355.891	27.84035
356.11	34.58239
356.328	37.09237
356.547	39.56695
356.765	38.78612
356.984	41.65151
357.202	42.46639
357.42	40.90207
357.639	40.89637
357.857	45.70849
358.076	47.8255
358.294	54.05273
358.512	57.86369
358.731	58.8062
358.949	51.47276
359.167	46.61664
359.386	48.54023
359.604	51.26516
359.822	56.25588
360.04	57.94376
360.259	53.39468
360.477	50.46321
360.695	44.8628
360.913	54.95924
361.131	54.07748
361.35	54.04172
361.568	47.92078
361.786	46.74218
362.004	53.49028
362.222	54.49723
362.44	53.53205
362.658	49.033
362.876	46.16829
363.094	52.44969
363.312	59.3556
363.53	59.28907
363.749	52.84112
363.967	47.56781
364.184	44.05106
364.402	49.84971
364.62	50.46915
364.838	50.24444
365.056	38.32147
365.274	32.65268
365.492	27.80036
365.71	29.26569
365.928	29.62768
366.146	33.50202
366.364	29.50185
366.581	25.23477
366.799	22.20995
367.017	27.45713
367.235	31.91813
367.453	34.61774
367.67	30.57724
367.888	22.7275
368.106	21.54795
368.323	19.26458
368.541	13.88819
368.759	14.32073
368.977	16.50474
369.194	29.73471
369.412	26.93351
369.629	21.75087
369.847	18.13109
370.065	21.51936
370.282	28.29543
370.5	25.23499
370.717	21.29109
370.935	15.65667
371.152	14.58112
371.37	15.59096
371.588	20.90053
371.805	28.23155
372.022	25.03831
372.24	27.38422
372.457	21.02981
372.675	33.57884
372.892	31.1979
373.11	32.50111
373.327	31.84562
373.544	34.06341
373.762	38.19851
373.979	30.18259
374.196	30.40945
374.414	29.82547
374.631	34.4206
374.848	35.91627
375.066	40.31278
375.283	40.53867
375.5	34.38592
375.717	38.19644
375.935	38.29229
376.152	41.77317
376.369	34.41348
376.586	29.55953
376.803	32.16955
377.02	35.32844
377.238	37.74327
377.455	35.62215
377.672	38.09745
377.889	38.81206
378.106	40.83818
378.323	37.16128
378.54	42.03999
378.757	43.36857
378.974	44.76453
379.191	44.60887
379.408	41.64802
379.625	34.87064
379.842	30.18498
380.059	32.75941
380.276	38.26889
380.493	41.12509
380.71	41.41402
380.927	39.12742
381.143	44.63629
381.36	42.2238
381.577	51.64094
381.794	47.75818
382.011	48.66848
382.228	42.47348
382.444	39.54891
382.661	42.03195
382.878	46.30369
383.095	52.51718
383.311	52.94001
383.528	50.95714
383.745	47.4473
383.962	51.71047
384.178	47.6381
384.395	46.43237
384.612	40.89455
384.828	41.44655
385.045	47.39633
385.261	43.59086
385.478	48.63616
385.695	39.94781
385.911	41.2152
386.128	39.59191
386.344	43.92659
386.561	45.91293
386.777	40.99422
386.994	44.37789
387.21	48.9366
387.427	53.26956
387.643	52.29627
387.86	49.79104
388.076	54.90426
388.292	48.38333
388.509	51.15029
388.725	43.22896
388.942	43.95298
389.158	33.27118
389.374	27.83551
389.591	30.14673
389.807	40.40059
390.023	52.74498
390.239	52.38976
390.456	44.54261
390.672	41.12635
390.888	39.68635
391.104	43.82391
391.321	38.2222
391.537	38.84592
391.753	33.73146
391.969	33.56297
392.185	37.79553
392.401	47.95932
392.618	51.6769
392.834	49.49244
393.05	44.67031
393.266	44.20717
393.482	43.87982
393.698	41.6653
393.914	42.87332
394.13	49.65101
394.346	48.05688
394.562	53.36751
394.778	45.94086
394.994	47.96217
395.21	42.4863
395.426	42.36053
395.642	45.19539
395.858	45.2634
396.073	45.8144
396.289	43.04538
396.505	47.76172
396.721	49.9796
396.937	53.85096
397.153	47.31099
397.369	51.86936
397.584	48.48445
397.8	47.99205
398.016	43.23172
398.232	48.72707
398.447	53.19754
398.663	47.76551
398.879	47.01999
399.094	42.84649
399.31	45.41534
399.526	33.92467
399.741	32.20211
399.957	34.09485
400.173	40.57533
400.388	45.26411
400.604	42.26232
400.82	39.49379
401.035	39.55872
401.251	38.09751
401.466	44.7144
401.682	39.7624
401.897	38.88189
402.113	32.26779
402.328	35.81998
402.544	42.42656
402.759	43.53201
402.974	44.79488
403.19	47.27726
403.405	44.7045
403.621	30.86602
403.836	22.62676
404.051	24.39046
404.267	40.21844
404.482	38.29333
404.697	38.81008
404.913	36.23903
405.128	39.36599
405.343	38.88116
405.559	33.868
405.774	34.48826
405.989	36.274
406.204	40.14991
406.42	42.98215
406.635	53.59402
406.85	54.20678
407.065	47.92155
407.28	38.0628
407.495	40.6407
407.71	42.75638
407.926	46.49982
408.141	43.56299
408.356	46.52619
408.571	38.9389
408.786	38.16227
409.001	40.77086
409.216	45.16852
409.431	40.41291
409.646	39.20997
409.861	37.21705
410.076	47.73872
410.291	45.87809
410.506	48.65344
410.721	41.68284
410.936	42.92474
411.15	39.17473
411.365	39.69018
411.58	43.46484
411.795	54.73101
412.01	56.75443
412.225	56.62979
412.439	53.79638
412.654	60.07624
412.869	58.67166
413.084	53.43234
413.299	50.34556
413.513	49.91943
413.728	51.31197
413.943	48.44146
414.157	52.04595
414.372	49.80149
414.587	46.3839
414.801	40.5286
415.016	40.04496
415.231	45.84587
415.445	46.65947
415.66	44.80334
415.874	40.30667
416.089	42.19896
416.304	44.96551
416.518	49.75706
416.733	42.56119
416.947	44.3813
417.162	38.02307
417.376	42.05524
417.59	42.48099
417.805	47.01125
418.019	49.55249
418.234	53.30097
418.448	52.61507
418.663	51.9112
418.877	47.09276
419.091	45.33177
419.306	45.51874
419.52	42.74892
419.734	48.54199
419.949	46.00292
420.163	49.87956
420.377	44.34834
420.591	46.26384
420.806	40.30199
421.02	39.13267
421.234	37.05038
421.448	39.0718
421.663	41.15962
421.877	43.28129
422.091	43.50761
422.305	41.45195
422.519	34.74283
422.733	35.10114
422.947	33.50718
423.161	32.91907
423.376	41.11839
423.59	46.97877
423.804	47.27073
424.018	41.08239
424.232	36.65103
424.446	39.22522
424.66	42.62454
424.874	43.18527
425.088	43.27136
425.302	40.62935
425.515	38.24501
425.729	42.49144
425.943	39.00753
426.157	40.46868
426.371	40.81872
426.585	42.92851
426.799	47.62645
427.013	48.28295
427.226	46.79214
427.44	45.38958
427.654	38.41955
427.868	37.18045
428.081	32.45821
428.295	42.78193
428.509	43.59655
428.723	42.74712
428.936	37.93226
429.15	35.58309
429.364	34.18869
429.577	33.37333
429.791	33.37623
430.005	39.95161
430.218	37.48047
430.432	36.86293
430.645	28.52562
430.859	27.05726
431.073	35.35771
431.286	43.63596
431.5	50.08074
431.713	46.01442
431.927	43.24519
432.14	39.8281
432.354	36.21532
432.567	39.85963
432.781	38.6516
432.994	40.60017
433.207	40.11477
433.421	38.61966
433.634	39.82509
433.848	35.81556
434.061	35.65027
434.274	31.97357
434.488	30.76602
434.701	36.39887
434.914	41.67222
435.127	39.65603
435.341	34.57877
435.554	32.13554
435.767	40.3772
435.98	44.18515
436.194	51.18995
436.407	52.75228
436.62	52.69294
436.833	52.00677
437.046	45.7574
437.259	39.75765
437.473	40.31554
437.686	43.56587
437.899	48.84239
438.112	45.19375
438.325	45.74518
438.538	48.3207
438.751	51.22597
438.964	53.70519
439.177	49.43548
439.39	51.73339
439.603	52.51704
439.816	60.19865
440.029	58.98776
440.242	53.99925
440.455	56.90058
440.668	54.99051
440.881	54.80139
441.094	49.95109
441.306	58.02038
441.519	63.03092
441.732	61.79346
441.945	57.58965
442.158	54.75476
442.37	61.92061
442.583	68.54353
442.796	72.57403
443.009	65.1142
443.222	61.61989
443.434	62.92823
443.647	61.49279
443.86	58.49911
444.072	56.71103
444.285	57.58808
444.498	50.23621
444.71	45.1602
444.923	47.57052
445.136	44.86337
445.348	53.16716
445.561	52.49417
445.773	58.42227
445.986	56.69439
446.198	55.06762
446.411	62.03245
446.623	56.85342
446.836	59.68696
447.048	46.63012
447.261	46.42961
447.473	39.64514
447.686	43.97545
447.898	47.1663
448.11	66.37681
448.323	64.32857
448.535	55.2136
448.748	39.42708
448.96	40.88725
449.172	46.09875
449.385	44.99213
449.597	39.20125
449.809	43.10472
450.021	44.47088
450.234	50.45738
450.446	46.51831
450.658	49.55641
450.87	50.6928
451.083	50.72274
451.295	50.77422
451.507	49.67592
451.719	57.32714
451.931	55.72938
452.143	62.53546
452.356	59.67389
452.568	66.9937
452.78	65.65591
452.992	67.60361
453.204	61.1644
453.416	60.57165
453.628	61.55701
453.84	65.52804
454.052	72.53032
454.264	74.96031
454.476	81.14529
454.688	78.80163
454.9	79.55713
455.112	68.22857
455.324	65.4042
455.536	63.94205
455.747	71.12679
455.959	76.38262
456.171	78.33365
456.383	78.98354
456.595	76.61456
456.807	77.56013
457.018	78.15448
457.23	77.69133
457.442	71.72992
457.654	69.02542
457.865	65.73461
458.077	65.86912
458.289	69.81015
458.501	74.45115
458.712	80.25197
458.924	77.62165
459.136	72.83135
459.347	65.50117
459.559	65.37286
459.77	60.91707
459.982	62.79662
460.194	59.048
460.405	63.89837
460.617	59.22252
460.828	55.55291
461.04	51.7025
461.251	54.95643
461.463	53.81216
461.674	48.14968
461.886	42.3504
462.097	41.70002
462.309	45.55255
462.52	51.48782
462.731	54.48402
462.943	53.14897
463.154	47.24344
463.366	48.5517
463.577	47.01185
463.788	51.0653
464	42.23468
464.211	47.67859
464.422	46.99084
464.634	55.19791
464.845	52.97983
465.056	52.35867
465.267	50.34294
465.478	49.8639
465.69	49.2707
465.901	46.14382
466.112	47.44187
466.323	45.03735
466.534	49.03369
466.745	47.50159
466.957	45.87189
467.168	44.44564
467.379	46.01455
467.59	52.88263
467.801	53.69246
468.012	52.76965
468.223	53.03218
468.434	50.65187
468.645	52.07966
468.856	52.59948
469.067	53.12529
469.278	51.54021
469.489	46.55982
469.7	45.77895
469.911	46.9812
470.122	48.25825
470.333	54.52168
470.543	51.26372
470.754	52.56265
470.965	45.65001
471.176	49.88141
471.387	44.83388
471.598	55.34766
471.808	58.97621
472.019	62.65069
472.23	59.81605
472.441	60.81311
472.651	63.03315
472.862	58.83375
473.073	59.22476
473.283	62.01671
473.494	61.27033
473.705	59.83503
473.915	54.8804
474.126	55.85133
474.337	59.14019
474.547	61.29494
474.758	62.53816
474.968	58.69454
475.179	60.86685
475.389	68.46597
475.6	65.33615
475.81	70.26503
476.021	67.94408
476.231	72.67079
476.442	64.20815
476.652	61.01264
476.863	60.59356
477.073	59.32052
477.284	63.06122
477.494	64.91071
477.704	65.10739
477.915	62.63035
478.125	66.05344
478.335	73.23553
478.546	75.71355
478.756	64.67003
478.966	61.85188
479.177	64.96996
479.387	69.76414
479.597	75.16553
479.807	70.35873
480.018	68.52976
480.228	61.46921
480.438	63.3826
480.648	71.21013
480.858	78.38578
481.068	78.07839
481.279	77.89246
481.489	84.6387
481.699	83.57358
481.909	86.82647
482.119	85.64149
482.329	94.80451
482.539	100.42741
482.749	105.97863
482.959	118.915
483.169	129.20438
483.379	138.84951
483.589	141.2496
483.799	146.58975
484.009	155.43311
484.219	165.52737
484.429	171.17723
484.639	181.13324
484.849	182.32822
485.059	179.90872
485.268	173.104
485.478	175.93948
485.688	187.98393
485.898	195.16753
486.108	199.91818
486.317	211.5843
486.527	223.75163
486.737	243.95403
486.947	250.34637
487.156	262.93592
487.366	264.33574
487.576	276.51776
487.785	284.85348
487.995	295.9644
488.205	295.16535
488.414	295.92964
488.624	299.84754
488.834	303.47148
489.043	307.0639
489.253	309.18017
489.462	313.33417
489.672	308.5557
489.882	302.70351
490.091	302.69304
490.301	308.29306
490.51	307.85938
490.72	306.61471
490.929	301.16703
491.138	302.08325
491.348	296.1324
491.557	289.20453
491.767	285.58871
491.976	280.72977
492.185	270.24192
492.395	259.54239
492.604	263.35466
492.813	262.1176
493.023	259.6687
493.232	245.86592
493.441	245.66495
493.651	236.35204
493.86	235.41099
494.069	228.07327
494.278	230.66871
494.488	222.78961
494.697	217.57179
494.906	208.44163
495.115	198.99733
495.324	199.0523
495.533	189.11531
495.743	189.61894
495.952	180.92377
496.161	176.99543
496.37	165.90719
496.579	158.93845
496.788	156.46239
496.997	150.79987
497.206	143.57909
497.415	132.62623
497.624	131.15062
497.833	120.10681
498.042	114.3771
498.251	100.83979
498.46	103.18756
498.669	100.72218
498.878	102.5252
499.087	99.02681
499.296	104.45162
499.504	103.76345
499.713	109.01307
499.922	103.59081
500.131	97.46505
500.34	91.73356
500.549	93.45394
500.757	95.06729
500.966	92.51294
501.175	87.92335
501.384	92.88154
501.592	93.37556
501.801	98.90063
502.01	92.60215
502.218	99.30242
502.427	99.66707
502.636	110.23822
502.844	104.64234
503.053	102.11383
503.262	99.47598
503.47	102.6255
503.679	104.29386
503.887	97.17228
504.096	96.82508
504.304	97.4968
504.513	103.05202
504.721	96.46453
504.93	93.82963
505.138	90.83637
505.347	93.8437
505.555	89.54541
505.764	85.91283
505.972	87.33859
506.18	85.62392
506.389	86.03345
506.597	84.51141
506.806	90.25626
507.014	98.18258
507.222	100.1668
507.431	95.94126
507.639	93.13324
507.847	94.5808
508.055	104.24596
508.264	104.14654
508.472	105.70526
508.68	102.1329
508.888	99.6921
509.096	95.04576
509.305	95.65733
509.513	99.56979
509.721	98.87865
509.929	98.03648
510.137	90.68064
510.345	97.49369
510.553	97.09969
510.762	107.43658
510.97	105.45105
511.178	107.20354
511.386	103.88228
511.594	97.95735
511.802	90.04772
512.01	92.69342
512.218	96.86172
512.426	100.9199
512.634	100.68541
512.842	99.90487
513.049	100.31659
513.257	101.95452
513.465	99.05435
513.673	98.43573
513.881	97.82101
514.089	103.64169
514.297	106.88691
514.504	109.61789
514.712	101.11117
514.92	98.57127
515.128	87.52596
515.336	93.72299
515.543	93.72487
515.751	101.81916
515.959	100.82174
516.166	113.44204
516.374	113.11773
516.582	117.28704
516.789	117.67158
516.997	117.46152
517.205	121.82774
517.412	114.6701
517.62	120.56125
517.827	116.84758
518.035	120.68043
518.243	123.39702
518.45	127.65557
518.658	129.56723
518.865	135.5637
519.073	142.38704
519.28	152.26461
519.488	157.78411
519.695	169.4946
519.902	177.03843
520.11	189.69991
520.317	198.65162
520.525	212.39396
520.732	219.75073
520.939	229.29801
521.147	239.3924
521.354	242.40581
521.561	242.6176
521.769	240.05164
521.976	243.21847
522.183	245.90801
522.391	248.16923
522.598	245.94011
522.805	248.74761
523.012	242.11819
523.219	245.10363
523.427	240.56996
523.634	246.73007
523.841	247.70399
524.048	249.20829
524.255	250.58394
524.462	246.23482
524.669	244.63768
524.877	239.86195
525.084	241.94503
525.291	241.88685
525.498	244.04335
525.705	237.98286
525.912	233.03342
526.119	224.88953
526.326	218.8306
526.533	217.44798
526.74	217.53434
526.947	215.61985
527.153	212.36562
527.36	202.94068
527.567	206.12923
527.774	194.67782
527.981	192.61204
528.188	180.34516
528.395	178.47933
528.602	167.51945
528.808	162.17415
529.015	154.99445
529.222	141.2032
529.429	132.76533
529.635	123.41914
529.842	127.79652
530.049	119.2821
530.256	116.21793
530.462	109.43796
530.669	104.13674
530.876	99.77625
531.082	98.0779
531.289	102.02705
531.495	105.81374
531.702	102.76096
531.909	95.21394
532.115	86.21849
532.322	82.74446
532.528	84.43325
532.735	85.7465
532.941	88.70749
533.148	90.40808
533.354	89.94322
533.561	90.98807
533.767	87.73149
533.974	88.78576
534.18	83.83293
534.387	87.54949
534.593	81.58212
534.799	87.07997
535.006	87.69083
535.212	90.33533
535.418	90.16017
535.625	85.70636
535.831	88.04726
536.037	83.89771
536.244	87.97933
536.45	87.52558
536.656	91.68985
536.862	88.68702
537.068	91.50801
537.275	85.06976
537.481	84.40697
537.687	81.26348
537.893	82.37392
538.099	89.07209
538.305	88.90937
538.512	95.96809
538.718	91.57016
538.924	92.89904
539.13	92.93321
539.336	90.5724
539.542	85.00758
539.748	81.26906
539.954	81.81011
540.16	87.31163
540.366	84.04383
540.572	82.69773
540.778	83.63644
540.984	91.49781
541.19	95.23518
541.396	87.16724
541.602	83.01295
541.807	78.81815
542.013	91.14693
542.219	88.4519
542.425	90.32909
542.631	86.46225
542.837	81.74534
543.042	87.31834
543.248	89.95022
543.454	98.73248
543.66	92.74277
543.865	87.19324
544.071	91.26593
544.277	92.80488
544.483	95.81842
544.688	90.6806
544.894	89.76379
545.1	84.66241
545.305	81.56478
545.511	81.91206
545.716	90.10019
545.922	90.29859
546.128	89.593
546.333	80.7882
546.539	78.6485
546.744	77.40265
546.95	80.25956
547.155	81.23153
547.361	77.44937
547.566	78.49459
547.772	74.42274
547.977	74.04965
548.182	73.29387
548.388	78.31215
548.593	83.44275
548.799	83.45386
549.004	81.14164
549.209	78.60534
549.415	75.89788
549.62	79.16379
549.825	74.18808
550.031	74.32944
550.236	71.91434
550.441	82.92228
550.646	81.67966
550.852	82.23512
551.057	75.95297
551.262	77.37218
551.467	77.17504
551.672	72.37777
551.878	68.22867
552.083	64.97622
552.288	63.77581
552.493	60.09139
552.698	59.63499
552.903	60.72038
553.108	65.7179
553.313	71.25946
553.518	74.44985
553.723	77.23819
553.928	79.66487
554.133	78.0879
554.338	76.26299
554.543	71.182
554.748	73.13376
554.953	75.19708
555.158	79.82651
555.363	76.89807
555.568	73.62692
555.773	71.0805
555.978	72.90295
556.182	77.79379
556.387	70.96355
556.592	69.27844
556.797	66.78905
557.002	68.44209
557.206	74.95365
557.411	78.90633
557.616	84.09116
557.821	84.02492
558.025	82.34535
558.23	87.06228
558.435	87.92466
558.64	95.40743
558.844	88.19952
559.049	88.30918
559.253	84.08231
559.458	89.74298
559.663	98.339
559.867	105.12625
560.072	113.27526
560.276	113.43834
560.481	116.13089
560.685	120.59924
560.89	123.87594
561.094	129.11215
561.299	135.08226
561.503	143.4905
561.708	143.15619
561.912	144.2849
562.117	150.21309
562.321	163.9278
562.525	176.02823
562.73	177.52077
562.934	174.17306
563.139	170.69501
563.343	178.55361
563.547	182.61887
563.752	186.89038
563.956	184.83873
564.16	189.74924
564.364	185.77771
564.569	182.46402
564.773	177.30411
564.977	177.42682
565.181	180.14064
565.385	188.47403
565.59	192.84799
565.794	191.35269
565.998	180.73154
566.202	178.36597
566.406	174.37898
566.61	171.86792
566.814	163.4838
567.018	169.57959
567.222	172.98332
567.426	175.37415
567.63	169.0045
567.834	160.20932
568.038	161.04265
568.242	160.38527
568.446	169.15405
568.65	168.66828
568.854	162.52704
569.058	160.30326
569.262	152.53353
569.466	148.95939
569.67	137.31719
569.874	135.0109
570.078	131.33222
570.281	127.73726
570.485	120.19465
570.689	119.0806
570.893	120.84353
571.097	118.12309
571.3	113.8702
571.504	106.1871
571.708	102.58707
571.912	99.7248
572.115	99.99481
572.319	102.66043
572.523	101.16059
572.726	96.02731
572.93	87.4512
573.133	83.11794
573.337	87.2748
573.541	94.6441
573.744	92.70364
573.948	91.73434
574.151	86.52294
574.355	80.53199
574.558	78.26467
574.762	78.45757
574.965	91.02698
575.169	95.4958
575.372	94.0435
575.576	92.40889
575.779	84.24915
575.983	86.39188
576.186	76.7252
576.389	82.39361
576.593	75.94904
576.796	80.6031
577	78.29582
577.203	81.13227
577.406	82.98643
577.609	84.60498
577.813	88.67565
578.016	89.00468
578.219	89.6279
578.423	96.47345
578.626	92.95937
578.829	86.25883
579.032	77.55106
579.235	79.78941
579.438	82.62491
579.642	80.3191
579.845	75.44356
580.048	75.13236
580.251	82.02136
580.454	86.38299
580.657	89.13608
580.86	87.16752
581.063	92.80007
581.266	92.82615
581.469	86.46617
581.672	88.64457
581.875	85.63381
582.078	90.87515
582.281	86.71064
582.484	94.15046
582.687	95.58421
582.89	93.9879
583.093	98.95704
583.296	101.49731
583.499	104.91319
583.702	90.84019
583.904	96.24902
584.107	96.3791
584.31	103.93496
584.513	96.72731
584.716	100.81462
584.918	103.33321
585.121	100.04884
585.324	98.62139
585.527	93.7611
585.729	99.25331
585.932	97.92857
586.135	102.32339
586.337	108.81229
586.54	107.5952
586.743	107.97826
586.945	98.53487
587.148	102.08269
587.35	99.22598
587.553	103.18113
587.755	100.88759
587.958	105.0566
588.161	103.25468
588.363	99.12119
588.566	98.87713
588.768	99.40166
588.971	103.32873
589.173	100.31086
589.375	96.03887
589.578	92.4604
589.78	94.01301
589.983	96.87125
590.185	101.49423
590.387	94.19535
590.59	91.21367
590.792	85.97896
590.994	92.45111
591.197	98.6234
591.399	96.30871
591.601	93.35064
591.803	87.69671
592.006	88.44344
592.208	87.17182
592.41	87.67613
592.612	89.89795
592.815	89.15753
593.017	91.06364
593.219	87.51104
593.421	84.74182
593.623	76.14609
593.825	83.96947
594.027	87.87785
594.229	90.87369
594.432	83.77183
594.634	84.9335
594.836	87.56952
595.038	96.15622
595.24	96.97601
595.442	97.51939
595.644	94.39805
595.846	88.36101
596.048	90.40411
596.249	88.31931
596.451	90.45195
596.653	84.96891
596.855	85.1376
597.057	91.98979
597.259	96.64493
597.461	95.64391
597.663	89.99471
597.864	92.95801
598.066	94.11561
598.268	95.00001
598.47	98.09023
598.671	98.8415
598.873	95.64215
599.075	90.03203
599.277	88.57371
599.478	93.47445
599.68	96.90736
599.882	103.63384
600.083	105.49332
600.285	99.69662
600.487	92.15158
600.688	94.88591
600.89	99.15638
601.091	100.58949
601.293	93.25377
601.494	93.21875
601.696	95.29366
601.898	99.09763
602.099	99.90409
602.301	102.50321
602.502	98.94433
602.703	101.80577
602.905	99.48623
603.106	101.92664
603.308	97.70336
603.509	104.52789
603.711	107.62566
603.912	110.53889
604.113	107.82321
604.315	109.3041
604.516	111.3311
604.717	108.77746
604.919	106.28403
605.12	113.26991
605.321	119.16855
605.522	117.69206
605.724	111.16519
605.925	110.75261
606.126	118.86946
606.327	125.78172
606.528	128.31482
606.729	130.22305
606.931	133.0314
607.132	136.50357
607.333	138.22227
607.534	138.38512
607.735	136.52657
607.936	137.1866
608.137	141.78569
608.338	152.48695
608.539	152.47126
608.74	152.80721
608.941	149.16083
609.142	156.98206
609.343	161.66452
609.544	164.53459
609.745	158.37965
609.946	152.38414
610.147	150.37611
610.348	154.71839
610.549	161.91836
610.75	166.41268
610.95	169.75623
611.151	166.37401
611.352	161.18553
611.553	164.41023
611.754	161.12847
611.954	159.92784
612.155	152.78225
612.356	148.55404
612.557	152.72649
612.757	153.31024
612.958	155.74674
613.159	151.57976
613.359	149.58738
613.56	142.74844
613.761	138.22024
613.961	131.2302
614.162	135.8994
614.362	134.96169
614.563	138.64275
614.764	134.92131
614.964	131.85531
615.165	126.13108
615.365	127.54724
615.566	126.8946
615.766	122.57933
615.967	115.30972
616.167	112.58865
616.368	112.70459
616.568	110.85144
616.768	110.36331
616.969	112.02401
617.169	108.6393
617.37	106.424
617.57	104.95141
617.77	106.64916
617.971	105.22067
618.171	94.38002
618.371	97.26771
618.571	97.05955
618.772	103.43522
618.972	94.79826
619.172	92.53836
619.372	91.25462
619.573	88.58556
619.773	84.04419
619.973	77.07517
620.173	77.82253
620.373	76.05401
620.573	84.1437
620.774	81.73884
620.974	75.97961
621.174	71.69324
621.374	71.89861
621.574	74.98683
621.774	76.75849
621.974	73.88539
622.174	76.10763
622.374	66.59601
622.574	65.95551
622.774	62.17861
622.974	65.43983
623.174	68.13312
623.374	69.86206
623.574	70.6395
623.774	71.2636
623.973	72.18398
624.173	71.03674
624.373	66.26663
624.573	62.45325
624.773	62.81544
624.973	60.42137
625.172	62.73074
625.372	58.99869
625.572	62.60615
625.772	61.33329
625.971	66.72706
626.171	67.70107
626.371	67.89792
626.57	67.74303
626.77	70.31348
626.97	71.0015
627.169	63.54042
627.369	60.62879
627.569	56.20252
627.768	56.01209
627.968	64.66325
628.167	66.81038
628.367	70.06335
628.566	55.38239
628.766	54.04444
628.965	52.06466
629.165	52.48562
629.364	52.65162
629.564	61.7513
629.763	65.16728
629.963	68.18883
630.162	60.74255
630.362	58.04194
630.561	63.48163
630.76	62.96397
630.96	66.38963
631.159	65.9638
631.358	64.23673
631.558	65.63352
631.757	61.53266
631.956	61.75575
632.155	62.17489
632.355	56.51227
632.554	60.52305
632.753	64.56043
632.952	63.77657
633.152	60.35677
633.351	58.98928
633.55	67.32454
633.749	68.69555
633.948	60.39223
634.147	59.87824
634.346	61.59561
634.545	64.19984
634.744	61.23647
634.944	62.25083
635.143	61.5657
635.342	70.54493
635.541	66.63392
635.74	71.75363
635.939	59.2498
636.138	59.54295
636.336	51.43558
636.535	55.38578
636.734	53.39957
636.933	54.56972
637.132	54.20409
637.331	57.10504
637.53	58.11358
637.729	56.68825
637.928	49.91292
638.126	46.5308
638.325	47.00768
638.524	47.66276
638.723	49.51428
638.921	43.01093
639.12	49.16188
639.319	46.39588
639.518	52.44812
639.716	53.47238
639.915	58.49635
640.114	55.95514
640.312	48.97068
640.511	51.21047
640.71	50.07672
640.908	50.99146
641.107	46.56126
641.305	49.03341
641.504	45.64674
641.702	49.12564
641.901	42.83771
642.099	45.50982
642.298	43.33163
642.496	47.31829
642.695	48.12999
642.893	43.28425
643.092	45.29032
643.29	45.72011
643.489	49.22692
643.687	48.03205
643.885	49.39809
644.084	46.83193
644.282	45.32776
644.48	45.03249
644.679	42.7493
644.877	42.55008
645.075	38.99968
645.274	47.05294
645.472	43.14476
645.67	47.60341
645.868	46.00384
646.067	53.8837
646.265	56.26299
646.463	54.4703
646.661	47.63013
646.859	39.91444
647.057	32.68265
647.256	39.85812
647.454	39.98329
647.652	49.13306
647.85	45.90477
648.048	47.41319
648.246	46.27855
648.444	46.21378
648.642	47.08465
648.84	43.36675
649.038	44.72727
649.236	48.14668
649.434	48.8638
649.632	50.37113
649.83	53.04125
650.028	50.4371
650.226	49.88259
650.423	43.57081
650.621	45.85057
650.819	37.86769
651.017	45.97512
651.215	46.039
651.413	54.34619
651.61	48.93711
651.808	48.16258
652.006	44.80635
652.204	37.11886
652.401	40.49884
652.599	35.52047
652.797	37.73869
652.995	37.09041
653.192	39.95724
653.39	45.39736
653.588	40.02153
653.785	41.25376
653.983	40.43556
654.18	47.66032
654.378	49.97259
654.576	52.44988
654.773	52.38608
654.971	57.14724
655.168	55.91269
655.366	53.08075
655.563	47.8081
655.761	47.4808
655.958	50.996
656.156	53.49408
656.353	56.18321
656.55	72.98898
656.748	98.99801
656.945	136.73608
657.143	189.82378
657.34	246.28315
657.537	317.31836
657.735	391.1055
657.932	479.95462
658.129	574.96367
658.326	677.91615
658.524	795.54025
658.721	911.67456
658.918	1012.94614
659.115	1096.98499
659.313	1159.10815
659.51	1218.1809
659.707	1253.57529
659.904	1298.46893
660.101	1314.99876
660.298	1336.78214
660.496	1337.75776
660.693	1334.81762
660.89	1333.34455
661.087	1338.48239
661.284	1348.66776
661.481	1355.13936
661.678	1353.08472
661.875	1338.96254
662.072	1325.83916
662.269	1316.34803
662.466	1315.76686
662.663	1309.83169
662.86	1295.78436
663.057	1294.2149
663.254	1279.00525
663.45	1270.21301
663.647	1249.26779
663.844	1225.48577
664.041	1206.37223
664.238	1189.58596
664.435	1192.26893
664.631	1185.26946
664.828	1179.53929
665.025	1165.56628
665.222	1145.34878
665.419	1123.93384
665.615	1098.03151
665.812	1078.46203
666.009	1035.96633
666.205	981.22885
666.402	924.86561
666.599	881.22214
666.795	852.66211
666.992	826.7999
667.188	800.50993
667.385	770.66092
667.582	737.68341
667.778	720.01695
667.975	693.11298
668.171	668.81075
668.368	624.07682
668.564	582.61888
668.761	534.64242
668.957	493.60515
669.154	444.28254
669.35	384.67101
669.547	328.42618
669.743	275.69113
669.939	220.01089
670.136	164.64537
670.332	118.08376
670.528	85.4397
670.725	66.99228
670.921	51.96664
671.117	51.99424
671.314	53.43112
671.51	50.62797
671.706	45.67933
671.902	32.26394
672.099	36.9573
672.295	42.16505
672.491	48.38604
672.687	48.08481
672.883	44.83304
673.08	42.2312
673.276	38.26186
673.472	36.30588
673.668	36.70081
673.864	37.25554
674.06	36.67387
674.256	34.38598
674.452	30.73824
674.648	30.76804
674.844	27.0227
675.04	30.60937
675.236	30.40808
675.432	32.7506
675.628	40.88597
675.824	41.93327
676.02	50.73807
676.216	44.77921
676.412	48.28919
676.608	42.80887
676.804	44.40575
676.999	46.88828
677.195	46.46653
677.391	43.88917
677.587	43.30534
677.783	44.54639
677.978	42.26566
678.174	41.21918
678.37	43.78944
678.566	46.58926
678.761	44.01241
678.957	41.75849
679.153	41.21715
679.348	42.26051
679.544	47.77006
679.74	50.00472
679.935	49.09743
680.131	47.96072
680.327	51.25911
680.522	52.23755
680.718	46.26982
680.913	44.37974
681.109	44.1832
681.304	47.60778
681.5	42.45917
681.695	44.89901
681.891	46.10652
682.086	55.2966
682.282	53.26477
682.477	46.97282
682.672	38.33815
682.868	36.62952
683.063	40.73865
683.259	40.31399
683.454	40.61015
683.649	38.59348
683.845	37.75184
684.04	34.68413
684.235	35.8258
684.43	33.08505
684.626	39.08048
684.821	30.73469
685.016	33.42507
685.211	25.1176
685.407	24.53166
685.602	28.12658
685.797	27.18296
685.992	34.31936
686.187	24.51882
686.382	29.01529
686.577	26.8977
686.773	36.27779
686.968	32.59584
687.163	32.78974
687.358	32.50226
687.553	34.19779
687.748	37.5867
687.943	29.14398
688.138	25.75409
688.333	20.08301
688.528	23.82855
688.723	24.61312
688.918	24.51936
689.112	28.13599
689.307	33.93619
689.502	38.03887
689.697	35.0759
689.892	30.28464
690.087	27.84402
690.282	23.60628
690.476	26.21303
690.671	24.54989
690.866	29.73525
691.061	30.22752
691.255	26.74086
691.45	24.521
691.645	22.43284
691.84	25.59494
692.034	28.884
692.229	22.92008
692.424	21.87519
692.618	16.99022
692.813	16.43596
693.007	11.84224
693.202	13.11276
693.397	21.94124
693.591	29.04392
693.786	25.68849
693.98	17.22013
694.175	14.32278
694.369	14.55258
694.564	16.21279
694.758	16.11379
694.953	22.1388
695.147	24.81356
695.342	28.59226
695.536	24.29348
695.73	25.49763
695.925	25.82459
696.119	27.5191
696.313	22.30569
696.508	13.96448
696.702	15.6627
696.896	14.91292
697.091	23.22437
697.285	23.05904
697.479	27.91673
697.673	20.25655
697.868	23.74399
698.062	24.03506
698.256	27.88209
698.45	18.13636
698.644	18.23367
698.839	23.54142
699.033	28.46179
699.227	29.08048
699.421	22.53419
699.615	18.26527
699.809	12.92177
700.003	19.01352
700.197	22.27127
700.391	26.86574
700.585	24.41879
700.779	26.14717
700.973	30.63998
701.167	28.329
701.361	28.06928
701.555	20.61249
701.749	21.10152
701.943	19.89469
702.137	21.81548
702.331	23.2139
702.525	23.64037
702.718	24.32665
702.912	25.37045
703.106	24.84697
703.3	26.86984
703.494	20.90945
703.687	24.85543
703.881	22.69834
704.075	26.83834
704.269	23.44723
704.462	23.97106
704.656	23.15371
704.85	22.17489
705.043	25.79217
705.237	27.19352
705.431	30.45059
705.624	22.46733
705.818	18.75167
706.012	18.72086
706.205	17.41676
706.399	21.97993
706.592	17.57791
706.786	24.81463
706.979	26.31638
707.173	28.11107
707.366	28.20546
707.56	26.96558
707.753	27.90941
707.947	27.78206
708.14	28.59272
708.333	27.77835
708.527	28.36197
708.72	23.6056
708.914	22.72772
709.107	16.50401
709.3	25.82531
709.494	24.4542
709.687	29.37528
709.88	23.11881
710.073	22.27312
710.267	23.60794
710.46	28.2651
710.653	32.72835
710.846	29.59978
711.04	25.79351
711.233	24.68713
711.426	28.17272
711.619	31.65011
711.812	38.4614
712.005	32.89207
712.198	31.75473
712.391	24.71353
712.585	25.5927
712.778	19.95733
712.971	19.04472
713.164	20.18671
713.357	17.31896
713.55	21.71825
713.743	18.45931
713.936	20.57568
714.129	17.31877
714.322	26.14706
714.514	31.46153
714.707	30.38629
714.9	25.63197
715.093	27.42031
715.286	33.57634
715.479	33.08601
715.672	31.16443
715.864	26.17906
716.057	24.41913
716.25	19.27095
716.443	16.63396
716.636	23.3819
716.828	30.16222
717.021	36.61204
717.214	30.74315
717.406	34.1922
717.599	37.32338
717.792	38.72723
717.984	35.96007
718.177	33.61284
718.37	35.27246
718.562	34.81452
718.755	29.24063
718.947	30.41309
719.14	27.87126
719.333	33.40776
719.525	32.33404
719.718	27.51437
719.91	26.31282
720.103	24.94078
720.295	28.00257
720.487	26.2412
720.68	26.76455
720.872	25.98261
721.065	23.37596
721.257	25.42512
721.449	34.2877
721.642	40.3828
721.834	37.19373
722.026	34.55441
722.219	33.64283
722.411	35.39902
722.603	29.89413
722.796	27.90596
722.988	28.66016
723.18	31.65695
723.372	29.05013
723.565	28.16697
723.757	32.62888
723.949	35.7871
724.141	36.99622
724.333	26.34357
724.525	26.6742
724.717	28.59427
724.91	34.78341
725.102	25.16778
725.294	24.74627
725.486	29.1083
725.678	32.1715
725.87	27.44346
726.062	21.38647
726.254	29.3988
726.446	38.74276
726.638	36.72168
726.83	37.67006
727.022	31.90716
727.213	37.70676
727.405	33.86067
727.597	31.02607
727.789	31.74641
727.981	29.13975
728.173	33.67336
728.365	31.91202
728.556	31.71442
728.748	36.36487
728.94	34.18383
729.132	34.09073
729.324	32.23961
729.515	33.18961
729.707	31.39491
729.899	33.99758
730.09	42.48611
730.282	45.93519
730.474	37.14534
730.665	31.6781
730.857	37.2865
731.049	44.48567
731.24	38.59314
731.432	37.45552
731.623	28.72469
731.815	31.62475
732.006	29.50304
732.198	30.41307
732.389	30.21244
732.581	27.96964
732.772	31.74893
732.964	35.13653
733.155	36.59913
733.347	37.47939
733.538	38.88404
733.729	44.68717
733.921	41.65836
734.112	37.1647
734.304	29.34207
734.495	31.03628
734.686	31.29243
734.877	35.36728
735.069	30.60797
735.26	30.73785
735.451	24.99949
735.643	30.37891
735.834	29.17679
736.025	32.66105
736.216	32.42853
736.407	33.95913
736.599	37.5503
736.79	32.89603
736.981	32.76361
737.172	31.26301
737.363	26.79808
737.554	26.21293
737.745	28.46161
737.936	31.91471
738.127	26.05297
738.318	15.29843
738.509	15.91723
738.7	21.00065
738.891	24.2934
739.082	26.37792
739.273	21.35895
739.464	22.76054
739.655	22.174
739.846	19.30636
740.037	21.87866
740.228	22.69285
740.419	24.19218
740.609	18.4893
740.8	21.78125
740.991	19.07609
741.182	21.54795
741.373	20.73565
741.563	26.47048
741.754	22.33809
741.945	23.28403
742.136	23.12219
742.326	30.12698
742.517	27.03049
742.708	29.33985
742.898	24.35552
743.089	21.19196
743.28	17.63993
743.47	19.98285
743.661	26.21172
743.851	32.21393
744.042	34.1707
744.233	33.05713
744.423	29.43761
744.614	23.24624
744.804	21.1344
744.995	20.28557
745.185	26.96913
745.376	23.90112
745.566	25.14214
745.756	20.67331
745.947	25.20533
746.137	26.73593
746.328	23.21891
746.518	20.80492
746.708	19.30695
746.899	21.71724
747.089	24.42763
747.279	24.48871
747.47	31.46648
747.66	26.41132
747.85	29.20926
748.04	25.58513
748.231	29.85547
748.421	24.81207
748.611	26.96967
748.801	25.0795
748.991	21.00587
749.182	17.70651
749.372	14.21807
749.562	21.25938
749.752	25.62512
749.942	24.68019
750.132	19.23494
750.322	15.10052
750.512	14.83995
750.702	21.58317
750.892	22.52924
751.082	30.0254
751.272	29.70216
751.462	31.03679
751.652	31.6904
751.842	31.10338
752.032	30.94192
752.222	24.81286
752.412	19.56577
752.602	15.16805
752.792	23.60679
752.981	29.1094
753.171	36.47326
753.361	32.33544
753.551	27.71472
753.741	21.94572
753.93	22.73042
754.12	24.87899
754.31	30.15901
754.5	26.67049
754.689	27.35826
754.879	25.13948
755.069	28.98623
755.258	31.19801
755.448	30.67713
755.638	31.16557
755.827	25.8884
756.017	26.54084
756.206	25.4357
756.396	29.0203
756.586	29.05639
756.775	25.23838
756.965	26.34158
757.154	26.43381
757.344	32.3611
757.533	32.36521
757.723	26.99151
757.912	20.70695
758.101	19.76454
758.291	20.15572
758.48	22.63248
758.67	21.55565
758.859	27.41899
759.048	25.69181
759.238	23.83463
759.427	18.68501
759.616	14.57935
759.806	15.16458
759.995	20.22196
760.184	22.60152
760.373	21.55961
760.563	15.88662
760.752	18.20117
760.941	20.61177
761.13	20.77556
761.319	21.84675
761.509	18.16673
761.698	19.24068
761.887	21.10239
762.076	26.92976
762.265	29.67046
762.454	28.19902
762.643	29.34251
762.832	30.93651
763.021	28.52898
763.21	21.22989
763.399	19.30766
763.588	22.56556
763.777	23.64116
763.966	22.66298
764.155	19.14219
764.344	24.74444
764.533	22.39918
764.722	22.16948
764.911	23.28007
765.1	23.83205
765.288	23.83506
765.477	17.57723
765.666	26.79905
765.855	27.64635
766.044	29.80074
766.232	24.71917
766.421	23.08988
766.61	27.58394
766.799	23.93374
766.987	28.07138
767.176	26.76891
767.365	29.92704
767.553	31.15749
767.742	27.04998
767.931	37.27782
768.119	32.33174
768.308	37.84117
768.497	28.00362
768.685	27.71059
768.874	24.80854
769.062	17.64297
769.251	23.86518
769.439	22.39907
769.628	29.86053
769.816	23.63828
770.005	18.16433
770.193	19.47023
770.382	19.4396
770.57	24.39373
770.758	22.2128
770.947	19.27909
771.135	15.92209
771.323	14.38789
771.512	26.15332
771.7	26.73781
771.888	22.53295
772.077	16.95981
772.265	21.5229
772.453	23.99862
772.642	20.25129
772.83	19.9245
773.018	17.93716
773.206	21.06699
773.394	17.97327
773.583	19.47554
773.771	16.86574
773.959	21.91708
774.147	23.76868
774.335	18.88147
774.523	17.83704
774.711	19.11273
774.899	19.11264
775.087	16.24721
775.275	13.57208
775.463	25.08043
775.651	25.34086
775.839	24.49608
776.027	16.34568
776.215	17.61965
776.403	17.48636
776.591	21.9502
776.779	15.65719
776.967	16.57298
777.155	18.09947
777.343	26.74066
777.531	24.65293
777.718	23.09532
777.906	17.15836
778.094	19.21312
778.282	13.83294
778.47	16.40577
778.657	18.88232
778.845	18.68869
779.033	22.2066
779.22	20.15152
779.408	32.49622
779.596	36.40537
779.783	41.2246
779.971	38.97887
780.159	36.73023
780.346	40.87197
780.534	41.78053
780.722	46.63357
780.909	47.51025
781.097	44.15725
781.284	39.2389
781.472	38.19626
781.659	46.34378
781.847	49.66379
782.034	51.57288
782.222	45.80525
782.409	44.14485
782.597	41.96774
782.784	44.59276
782.971	48.2449
783.159	48.9647
783.346	47.34845
783.533	43.20909
783.721	42.39471
783.908	42.87676
784.095	40.17555
784.283	44.1178
784.47	49.59185
784.657	56.09747
784.844	53.56152
785.032	47.70348
785.219	43.57317
785.406	45.36509
785.593	47.05447
785.78	48.49308
785.968	43.60495
786.155	41.71529
786.342	37.14932
786.529	32.68761
786.716	33.73373
786.903	34.22148
787.09	43.15155
787.277	44.38463
787.464	45.00385
787.651	43.04702
787.838	36.60358
788.025	38.00718
788.212	29.27555
788.399	26.56975
788.586	23.21804
788.773	24.2943
788.96	32.38248
789.147	27.85149
789.334	26.48284
789.521	15.88628
789.707	16.01854
789.894	18.07098
790.081	16.37803
790.268	22.5304
790.455	17.8372
790.641	16.82608
790.828	7.15241
791.015	6.89315
791.202	10.99763
791.388	17.48427
791.575	18.78858
791.762	13.90215
791.948	6.56832
792.135	3.34029
792.322	4.21935
792.508	9.72803
792.695	9.92423
792.881	10.21879
793.068	5.32968
793.254	7.6116
793.441	5.78626
793.627	7.77438
793.814	9.24205
794	11.81632
794.187	14.09616
794.373	11.22593
794.56	11.38885
794.746	4.64364
794.933	3.14511
795.119	5.06612
795.305	12.10941
795.492	14.94318
795.678	9.30727
795.864	11.09493
796.051	17.2866
796.237	21.75135
796.423	12.69186
796.61	8.03425
796.796	8.7527
796.982	10.35013
797.168	7.1872
797.355	1.48228
797.541	0.99327
797.727	5.55632
797.913	10.60744
798.099	12.85684
798.285	11.19394
798.471	4.84043
798.658	7.38242
798.844	6.43799
799.03	11.52123
799.216	6.99084
799.402	4.28569
799.588	3.14542
799.774	3.73191
799.96	6.37201
800.146	11.19367
800.332	11.32393
800.518	11.51829
800.704	4.93627
800.89	15.43297
801.075	10.93657
801.261	13.21876
801.447	6.59995
801.633	12.27193
801.819	14.42272
802.005	9.66483
802.19	8.62089
802.376	6.07862
802.562	15.04034
802.748	10.70573
802.934	14.55201
803.119	10.41395
803.305	13.02056
803.491	12.40284
803.676	10.05653
803.862	11.65384
804.048	8.62035
804.233	8.78266
804.419	7.74082
804.605	6.66549
804.79	9.66426
804.976	10.18418
805.161	10.80384
805.347	9.46755
805.532	12.49838
805.718	14.32271
805.903	16.44136
806.089	9.56552
806.274	11.52158
806.46	6.17651
806.645	6.63282
806.831	4.12409
807.016	5.78617
807.201	6.79702
807.387	6.20876
807.572	3.63392
807.757	4.3179
807.943	9.95747
808.128	14.97619
808.313	14.19336
808.499	11.84662
808.684	8.22987
808.869	8.06721
809.054	6.7314
809.24	3.4071
809.425	12.66317
809.61	14.84533
809.795	14.81237
809.98	7.34897
810.165	-2.0686
810.35	-1.18886
810.536	-0.30896
810.721	1.02603
810.906	-3.43826
811.091	-8.3596
811.276	-1.87241
811.461	-0.60124
811.646	-2.94775
811.831	-6.79487
812.016	6.46998
812.201	8.88174
812.386	7.02382
812.571	2.0029
812.756	7.25116
812.941	11.03179
813.125	4.15478
813.31	-0.63715
813.495	-0.73388
813.68	4.54733
813.865	6.66585
814.05	3.9275
814.234	1.71118
814.419	0.50508
814.604	2.7216
814.789	1.90705
814.973	-1.32063
815.158	-0.01677
815.343	3.86219
815.528	10.28488
815.712	8.85024
815.897	4.57981
816.081	4.28637
816.266	-0.89709
816.451	3.73176
816.635	4.77355
816.82	8.94738
817.004	6.24165
817.189	11.58592
817.374	15.49502
817.558	12.72382
817.743	7.50987
817.927	3.4373
818.111	8.9793
818.296	8.10079
818.48	8.52484
818.665	11.1966
818.849	7.48015
819.034	8.91388
819.218	6.47094
819.402	8.00357
819.587	7.4157
819.771	-2.65869
819.955	-3.93069
820.14	-2.39693
820.324	8.32718
820.508	10.96734
820.692	9.79336
820.877	4.70993
821.061	3.56954
821.245	5.75411
821.429	7.67694
821.613	6.76447
821.798	10.11953
821.982	12.3365
822.166	13.86772
822.35	7.93634
822.534	7.25098
822.718	8.26266
822.902	3.24366
823.086	1.80972
823.27	1.12482
823.454	1.05898
823.638	-1.51586
823.822	-7.22087
824.006	2.59068
824.19	2.52519
824.374	7.64335
824.558	1.80902
824.742	2.2012
824.926	4.3529
825.11	5.62388
825.294	3.17755
825.477	2.8171
825.661	2.39447
825.845	9.46886
826.029	4.77631
826.213	3.24377
826.396	9.20617
826.58	8.48913
826.764	4.93542
826.948	-4.09133
827.131	-1.74443
827.315	-0.17925
827.499	4.38336
827.682	8.49064
827.866	11.00055
828.05	10.90229
828.233	5.06717
828.417	2.13348
828.6	-2.52624
828.784	-0.86408
828.967	-1.1575
829.151	5.85002
829.335	7.54551
829.518	11.00035
829.701	9.37119
829.885	9.2414
830.068	13.57639
830.252	5.19913
830.435	3.37298
830.619	-4.4167
830.802	0.76667
830.985	-2.94878
831.169	-2.98118
831.352	-5.71987
831.535	-2.06967
831.719	3.5367
831.902	7.64333
832.085	4.80894
832.269	-0.47207
832.452	-4.38306
832.635	2.26512
832.818	7.87217
833.002	11.75001
833.185	11.61805
833.368	16.54121
833.551	11.68568
833.734	12.30588
833.917	3.53618
834.1	7.90476
834.284	6.73321
834.467	4.67982
834.65	4.1572
834.833	3.63446
835.016	10.08765
835.199	11.32599
835.382	12.69585
835.565	5.72005
835.748	0.96154
835.931	-0.47333
836.114	8.75236
836.297	4.67781
836.479	0.76652
836.662	-0.7964
836.845	5.46183
837.028	11.00315
837.211	9.01187
837.394	5.09946
837.577	1.4158
837.759	4.51183
837.942	6.69697
838.125	7.67486
838.308	7.7082
838.49	9.07661
838.673	8.06607
838.856	5.46035
839.039	4.58083
839.221	2.23406
839.404	3.14432
839.587	6.07819
839.769	10.05428
839.952	3.24281
840.134	2.65719
840.317	1.61447
840.499	5.88372
840.682	1.84004
840.865	-1.25635
841.047	-1.7767
841.23	3.92669
841.412	6.37092
841.595	4.96924
841.777	-5.49524
841.959	-5.98378
842.142	-7.31988
842.324	-3.63331
842.507	-1.44969
842.689	-5.16673
842.871	-5.59042
843.054	-3.60456
843.236	0.14457
843.418	2.78396
843.601	-1.90715
843.783	-2.32974
843.965	5.88361
844.147	11.22742
844.33	14.3884
844.512	6.14249
844.694	1.80938
844.876	-2.36289
845.059	6.08008
845.241	2.0384
845.423	5.19991
845.605	-9.49816
845.787	-0.27465
845.969	2.81976
846.151	12.92143
846.333	12.85578
846.515	11.12982
846.697	12.39845
846.879	7.6734
847.061	8.61874
847.243	13.57504
847.425	19.76708
847.607	21.39629
847.789	15.69259
847.971	14.32225
848.153	19.2112
848.335	21.85105
848.517	22.50419
848.699	24.19596
848.881	31.46014
849.062	33.12107
849.244	27.41901
849.426	18.36183
849.608	19.14387
849.789	23.08458
849.971	25.16868
850.153	25.75349
850.335	27.15308
850.516	28.03554
850.698	26.01813
850.88	21.65503
851.061	23.21448
851.243	19.95467
851.425	19.01201
851.606	19.50607
851.788	23.15506
851.969	22.9601
852.151	19.07772
852.333	20.24967
852.514	21.28943
852.696	22.9537
852.877	17.1884
853.059	23.79866
853.24	16.85719
853.422	20.96256
853.603	16.27355
853.784	24.12804
853.966	23.76853
854.147	25.24035
854.329	22.89175
854.51	24.75372
854.691	16.44168
854.873	18.07272
855.054	24.90811
855.235	32.07881
855.416	31.03511
855.598	18.81917
855.779	9.82361
855.96	4.51316
856.141	8.75198
856.323	11.03302
856.504	15.69367
856.685	17.25324
856.866	14.84196
857.047	15.49396
857.228	4.80796
857.409	5.98111
857.591	4.09088
857.772	9.04494
857.953	10.80487
858.134	9.23997
858.315	4.90516
858.496	10.708
858.677	6.79711
858.858	7.44872
859.039	-4.67782
859.22	-0.37364
859.401	3.24429
859.582	6.60182
859.762	5.72005
859.943	3.73211
860.124	7.97025
860.305	2.55926
860.486	-2.33
860.667	-4.54656
860.848	-2.88396
861.028	0.57094
861.209	1.94018
861.39	2.55948
861.571	2.0379
861.751	0.70052
861.932	0.27682
862.113	6.1141
862.293	5.88609
862.474	8.95054
862.655	2.88507
862.835	3.30945
863.016	0.66869
863.197	5.9151
863.377	1.96922
863.558	0.01379
863.738	-6.27546
863.919	-1.22163
864.099	5.98217
864.28	10.77191
864.46	7.60994
864.641	2.32905
864.821	-4.74363
865.002	-2.33135
865.182	-2.03801
865.363	-0.24475
865.543	0.21181
865.723	4.97178
865.904	2.43041
866.084	-1.80747
866.264	-10.77088
866.445	-5.36047
866.625	-3.95859
866.805	3.79722
866.986	1.93937
867.166	0.34254
867.346	-3.11206
867.526	-4.54675
867.707	-3.40611
867.887	-2.62381
868.067	2.1671
868.247	4.74153
868.427	6.27322
868.607	-0.50694
868.788	0.04704
868.968	-5.75391
869.148	-3.07925
869.328	-5.328
869.508	-4.96997
869.688	-2.81934
869.868	0.34266
870.048	0.08125
870.228	-2.98326
870.408	-1.64547
870.588	3.66714
870.768	6.56874
870.948	5.81658
871.128	3.82911
871.307	8.22877
871.487	-3.50236
871.667	6.56776
871.847	8.19863
872.027	17.02948
872.207	8.42667
872.387	9.37043
872.566	9.7615
872.746	12.30284
872.926	2.81872
873.106	10.54307
873.285	10.80497
873.465	13.80375
873.645	10.18815
873.824	10.38443
874.004	9.66728
874.184	5.49346
874.363	0.04876
874.543	-4.48366
874.723	-2.52758
874.902	-2.88624
875.082	5.46031
875.261	3.69946
875.441	1.90691
875.62	-3.83054
875.8	-6.17691
875.979	-3.30853
876.159	-0.73338
876.338	2.00446
876.518	3.7645
876.697	1.71123
876.876	8.1971
877.056	7.34959
877.235	10.67406
877.415	2.16753
877.594	2.13502
877.773	-2.26481
877.953	3.53728
878.132	3.92846
878.311	1.41741
878.49	0.63306
878.67	-6.24397
878.849	3.95991
879.028	4.64588
879.207	15.01011
879.387	11.71746
879.566	7.44789
879.745	3.56945
879.924	0.11394
880.103	-2.5922
880.282	1.2545
880.461	6.43925
880.64	4.32185
880.819	6.5059
880.998	6.40523
881.178	9.10986
881.357	6.95752
881.536	-0.27817
881.715	0.27596
881.893	4.80716
882.072	13.28082
882.251	17.91039
882.43	10.34852
882.609	8.49272
882.788	0.86481
882.967	-0.3414
883.146	0.14772
883.325	6.30846
883.503	4.58048
883.682	2.75458
883.861	10.21695
884.04	9.36969
884.219	12.20562
884.397	1.19051
884.576	4.67831
884.755	0.01679
884.933	9.07592
885.112	9.30464
885.291	8.71803
885.469	1.19053
885.648	0.3752
885.827	4.64681
886.005	1.4194
886.184	-1.0908
886.363	-3.50385
886.541	3.14646
886.72	9.39608
886.898	9.72193
887.077	6.42912
887.255	3.6679
887.434	-0.11371
887.612	2.39658
887.791	3.89569
887.969	13.02406
888.147	7.44923
888.326	2.88594
888.504	-2.81976
888.682	2.42922
888.861	5.75351
889.039	3.73232
889.218	3.53718
889.396	2.75527
889.574	4.12434
889.752	1.97192
889.931	-4.44941
890.109	-4.09071
890.287	0.57006
890.465	7.38264
890.643	8.62088
890.822	5.36131
891	3.95952
891.178	1.51489
891.356	-0.44028
891.534	2.68991
891.712	9.40282
891.89	14.39085
892.068	15.69351
892.247	11.81725
892.425	7.67674
892.603	3.27647
892.781	-0.6033
892.959	-6.89294
893.137	-6.95814
893.314	-3.43761
893.492	6.53563
893.67	6.14456
893.848	8.09945
894.026	5.32814
894.204	-2.03759
894.382	-4.70879
894.56	-9.40271
894.738	-7.05826
894.915	-6.53757
895.093	0.76409
895.271	10.99942
895.449	15.82088
895.626	20.38519
895.804	17.51759
895.982	13.18556
896.16	7.22076
896.337	5.13501
896.515	1.54895
896.693	-5.16559
896.87	-2.0035
897.048	-3.73073
897.225	-0.11362
897.403	0.24423
897.581	5.58901
897.758	5.23035
897.936	3.7314
898.113	-2.39564
898.291	3.63431
898.468	4.28575
898.646	2.78532
898.823	1.1225
899.001	1.74206
899.178	4.38339
899.356	-0.76627
899.533	-1.05945
899.71	7.97074
899.888	12.89139
900.065	9.85983
900.242	6.43657
900.42	3.60261
900.597	5.75361
900.774	4.09083
900.952	5.16706
901.129	3.96164
901.306	7.02443
901.483	7.41481
901.661	8.88151
901.838	8.16598
902.015	7.44922
902.192	7.31963
902.369	4.18975
902.546	2.75516
902.723	-0.4076
902.901	2.8841
903.078	4.7414
903.255	6.07798
903.432	-0.44116
903.609	-4.87347
903.786	-5.55824
903.963	2.55497
904.14	0.92392
904.317	2.52152
904.494	-8.49414
904.671	0.57062
904.848	-0.60302
905.024	9.53526
905.201	4.93739
905.378	6.82816
905.555	1.84189
905.732	2.39616
905.909	-3.50078
906.086	-2.49007
906.262	-4.96753
906.439	5.82163
906.616	7.02754
906.793	7.51602
906.969	9.07676
907.146	9.3703
907.323	9.63146
907.5	3.79735
907.676	0.04821
907.853	-1.97275
908.03	-4.97135
908.206	2.65743
908.383	5.46076
908.559	1.51498
908.736	-7.97178
908.912	-5.36416
909.089	-7.18607
909.266	0.37704
909.442	-2.71954
909.619	8.94774
909.795	3.14491
909.972	0.70035
910.148	-2.68892
910.324	-2.59134
910.501	2.59249
910.677	0.57112
910.854	5.102
911.03	1.18888
911.206	0.24387
911.383	-5.16704
911.559	-2.95025
911.735	-6.47111
911.912	-6.17764
912.088	-8.13313
912.264	-5.23163
912.44	-0.27663
912.617	6.01401
912.793	6.89398
912.969	1.93897
913.145	-5.00364
913.321	-4.93867
913.498	-0.04977
913.674	6.69764
913.85	3.92781
914.026	1.58158
914.202	-3.60133
914.378	0.21171
914.554	-0.76598
914.73	1.12384
914.906	-0.83195
915.082	-2.78834
915.258	0.0821
915.434	0.3428
915.61	3.44016
915.786	4.18869
915.962	10.54631
916.138	9.86156
916.314	2.26664
916.49	-0.27744
916.665	-0.04919
916.841	-1.32103
917.017	-3.43958
917.193	-0.66921
917.369	0.63594
917.545	1.74483
917.72	-0.47139
917.896	3.66749
918.072	3.43848
918.247	6.53489
918.423	2.29683
918.599	3.86255
918.775	4.58017
918.95	4.35466
919.126	0.63819
919.301	0.96262
919.477	0.60089
919.653	5.62006
919.828	-2.30013
920.004	0.43937
920.179	5.64019
920.355	10.04104
920.53	10.30153
920.706	-0.83144
920.881	-4.71009
921.057	-6.20941
921.232	0.73425
921.408	3.14615
921.583	3.30883
921.759	-3.99304
921.934	-7.1556
922.109	-7.38364
922.285	-0.76643
922.46	2.52656
922.635	5.81918
922.811	2.49381
922.986	8.03412
923.161	5.55637
923.336	4.08975
923.512	-4.77531
923.687	-4.15586
923.862	-11.71758
924.037	-6.73077
924.212	-5.49202
924.388	2.29767
924.563	-0.70049
924.738	-1.74364
924.913	-1.67844
925.088	-3.11252
925.263	-1.58004
925.438	0.63634
925.613	9.85964
925.788	6.72983
925.963	4.61126
926.138	-6.20987
926.313	2.07034
926.488	4.54741
926.663	8.98071
926.838	0.47201
927.013	1.61315
927.188	1.02624
927.363	6.69884
927.538	0.44008
927.713	2.85244
927.888	3.17914
928.062	5.75449
928.237	6.50422
928.412	1.87432
928.587	4.67734
928.761	0.0812
928.936	0.53757
929.111	-0.96173
929.286	-0.11471
929.46	1.2871
929.635	1.02661
929.81	-0.14667
929.984	-2.98264
930.159	-0.3743
930.334	-3.93044
930.508	-6.63709
930.683	-9.08237
930.857	-0.11416
931.032	3.86364
931.206	7.18733
931.381	4.12242
931.556	6.69721
931.73	6.34192
931.904	4.19086
932.079	-1.54466
932.253	-9.14265
932.428	-3.47144
932.602	-1.9084
932.777	2.91702
932.951	-4.0907
933.125	-5.29608
933.3	-8.09972
933.474	-1.25359
933.648	1.32141
933.823	1.94077
933.997	-1.15705
934.171	-1.80886
934.345	-7.93844
934.52	-8.62282
934.694	-3.50443
934.868	2.62459
935.042	7.41641
935.217	2.36271
935.391	1.77643
935.565	-0.40843
935.739	0.3418
935.913	3.01418
936.087	5.85079
936.261	10.70765
936.435	14.32572
936.609	14.12967
936.783	18.52851
936.957	16.44284
937.131	11.84713
937.305	0.60209
937.479	0.8305
937.653	0.50459
937.827	0.21186
938.001	-2.62409
938.175	-1.64636
938.349	2.49344
938.523	-0.44016
938.697	-4.4165
938.87	-5.85063
939.044	-0.83096
939.218	3.37316
939.392	5.0363
939.566	1.32018
939.739	-4.74298
939.913	-0.40842
940.087	-1.41914
940.261	5.26421
940.434	-2.65668
940.608	-3.7312
940.782	-3.04761
940.955	-3.66656
941.129	1.02638
941.302	-5.13475
941.476	-0.24515
941.65	-4.48232
941.823	1.1904
941.997	-2.62414
942.17	1.51564
942.344	4.64426
942.517	8.00253
942.691	7.41538
942.864	3.56986
943.038	0.83123
943.211	2.26604
943.385	-3.53346
943.558	-5.35572
943.731	-7.83334
943.905	-2.52289
944.078	-3.60112
944.251	-3.01445
944.425	-4.74199
944.598	-3.37449
944.771	-1.90749
944.945	1.28695
945.118	6.01381
945.291	6.76383
945.464	3.21067
945.638	0.73387
945.811	-5.36195
945.984	-6.43781
946.157	-6.63349
946.33	-4.54747
946.503	6.86048
946.677	9.69691
946.85	11.5875
947.023	-2.98317
947.196	-0.60315
947.369	-1.80963
947.542	6.11221
947.715	1.61298
947.888	4.25328
948.061	2.49326
948.234	0.11342
948.407	-0.17929
948.58	-5.42739
948.753	-7.12236
948.926	-8.19824
949.099	-4.41689
949.271	1.54823
949.444	5.42758
949.617	5.98161
949.79	2.52665
949.963	4.67643
950.136	3.66569
950.308	3.1442
950.481	-5.98105
950.654	-3.79671
950.827	-3.7974
950.999	-3.37431
951.172	-1.41855
951.345	-1.93904
951.517	3.21232
951.69	0.80013
951.863	4.32031
952.035	6.63334
952.208	6.40516
952.381	1.67782
952.553	-5.78697
952.726	-6.14557
952.898	-6.30894
953.071	-4.15703
953.243	-5.29856
953.416	-4.97007
953.588	-0.40586
953.761	2.49576
953.933	3.04821
954.106	-0.9946
954.278	-0.40787
954.45	5.65513
954.623	3.82971
954.795	0.76598
954.967	-1.80898
955.14	3.89588
955.312	6.5033
955.484	2.59131
955.657	-2.62467
955.829	0.8621
956.001	4.77398
956.173	6.73017
956.346	2.88554
956.518	7.38462
956.69	3.17823
956.862	2.26482
957.034	2.36209
957.207	0.27808
957.379	-1.22147
957.551	-4.15561
957.723	4.80818
957.895	6.95984
958.067	2.16815
958.239	0.34199
958.411	3.20962
958.583	3.89483
958.755	1.22165
958.927	-1.64629
959.099	-0.21239
959.271	-4.77607
959.443	-8.52576
959.615	-8.59085
959.787	-2.4622
959.959	2.81982
960.13	0.0479
960.302	0.99303
960.474	-0.66932
960.646	4.31917
960.818	10.84033
960.99	11.62294
961.161	11.72062
961.333	7.38412
961.505	8.29637
961.677	7.15506
961.848	5.19908
962.02	2.42832
962.192	-1.02654
962.363	-0.96188
962.535	-0.14684
962.707	1.6459
962.878	2.55901
963.05	3.83076
963.221	4.22197
963.393	0.60388
963.564	-1.51546
963.736	-5.59063
963.907	-5.19968
964.079	-9.73012
964.25	-3.89444
964.422	1.64791
964.593	6.73244
964.765	7.67696
964.936	4.02487
965.108	-0.79964
965.279	-1.97245
965.45	0.66875
965.622	7.9708
965.793	5.98219
965.964	11.55702
966.136	7.18881
966.307	9.95933
966.478	0.89596
966.65	6.69878
966.821	8.59001
966.992	5.65653
967.163	-1.90684
967.334	-11.75397
967.506	-7.3859
967.677	-2.82169
967.848	-2.62428
968.019	-0.56977
968.19	-0.34183
968.361	5.75457
968.532	6.11214
968.703	6.50313
968.874	5.10138
969.045	3.73166
969.216	3.89533
969.387	8.81722
969.558	7.64398
969.729	9.7622
969.9	-2.13328
970.071	-4.15411
970.242	-10.90146
970.413	-4.38455
970.584	-0.08191
970.755	-0.83167
970.926	-0.08136
971.097	-8.13243
971.267	-6.76445
971.438	-7.31905
971.609	-3.66833
971.78	0.21222
971.951	-2.85055
972.121	-0.14473
972.292	-1.31872
972.463	2.06984
972.633	-1.25558
972.804	-2.91798
972.975	-0.79861
973.145	-1.9071
973.316	4.48205
973.487	1.28747
973.657	9.66758
973.828	1.97402
973.998	3.83192
974.169	-4.45021
974.339	-3.24349
974.51	-3.66705
974.68	-5.26449
974.851	-2.85172
975.021	1.48352
975.192	7.28615
975.362	2.39492
975.533	3.89247
975.703	2.26251
975.874	7.25135
976.044	-0.50545
976.214	2.42777
976.385	3.20938
976.555	7.74125
976.725	-0.96035
976.896	-1.51413
977.066	-8.00094
977.236	-2.78658
977.406	-6.04664
977.577	0.86249
977.747	-1.67975
977.917	-0.50626
978.087	-2.88464
978.257	1.32054
978.427	-1.18882
978.598	-3.79727
978.768	-7.61179
978.938	-10.18714
979.108	-8.71936
979.278	-1.77532
979.448	4.18958
979.618	3.89584
979.788	-2.33073
979.958	-8.94779
980.128	-6.1115
980.298	-4.74256
980.468	0.44056
980.638	1.4841
980.808	0.44125
980.978	5.13536
981.148	3.9937
981.317	5.65607
981.487	3.8958
981.657	-1.45001
981.827	-1.5153
981.997	-6.60183
982.167	-4.22248
982.336	-8.06951
982.506	-2.16898
982.676	0.43875
982.846	-0.24501
983.015	0.83216
983.185	-1.18819
983.355	3.96159
983.524	-3.14618
983.694	-2.69016
983.864	-5.10227
984.033	-4.97269
984.203	-7.28794
984.372	-4.58234
984.542	-1.093
984.712	3.40623
984.881	2.06989
985.051	-3.27553
985.22	-9.4702
985.39	-14.84938
985.559	-12.665
985.728	-4.70929
985.898	2.723
986.067	0.53898
986.237	-5.58962
986.406	-7.21897
986.576	3.9941
986.745	5.16662
986.914	2.95034
987.084	1.15865
987.253	3.40849
987.422	2.98396
987.591	-5.85261
987.761	-6.92846
987.93	-6.43843
988.099	0.83243
988.268	5.42663
988.438	5.52346
988.607	0.99199
988.776	-5.13393
988.945	-4.61215
989.114	-2.94979
989.283	3.43909
989.452	10.11986
989.621	6.30533
989.791	-3.44204
989.96	-9.40558
990.129	-4.77585
990.298	0.60332
990.467	-0.50531
990.636	2.07006
990.805	-1.05894
990.974	5.0064
991.142	1.4529
991.311	3.73495
991.48	0.24504
991.649	1.8096
991.818	1.41753
991.987	-0.08188
992.156	4.51537
992.325	4.25503
992.493	4.25569
992.662	-1.38468
992.831	-2.16573
993	-1.74257
993.168	-4.93787
993.337	2.78514
993.506	0.17688
993.675	3.79601
993.843	0.76633
994.012	6.40487
994.181	6.24197
994.349	3.63342
994.518	0.701
994.686	1.71077
994.855	1.84123
995.024	3.66578
995.192	-2.52784
995.361	-1.68044
995.529	-12.66624
995.698	-12.40612
995.866	-17.62181
996.035	-8.00446
996.203	-3.11325
996.371	1.74398
996.54	-1.51535
996.708	-6.0468
996.877	-6.50317
997.045	-10.87028
997.213	-9.66452
997.382	-4.61292
997.55	4.9685
997.718	3.60035
997.887	2.0045
998.055	-1.22159
998.223	4.25409
998.391	2.00471
998.56	4.90568
998.728	3.66731
998.896	3.60222
999.064	1.45088
999.232	2.1354
999.401	1.05932
999.569	0.86383
999.737	-1.1246
999.905	-1.54841
1000.073	-5.06869
1000.241	-7.645
1000.409	-7.77522
1000.577	-5.5915
1000.745	1.77714
1000.913	-0.37444
1001.081	3.60288
1001.249	1.05945
1001.417	3.439
1001.585	-0.99497
1001.753	-3.92911
1001.921	-6.43931
1002.089	-3.01643
1002.256	-1.67937
1002.424	-4.7762
1002.592	-4.61292
1002.76	-4.84087
1002.928	5.85336
1003.096	2.75649
1003.263	0.14966
1003.431	-2.03533
1003.599	-3.30675
1003.767	-0.83045
1003.934	-4.97208
1004.102	-3.73296
1004.27	-0.8649
1004.437	-1.71239
1004.605	-3.24354
1004.773	0.79752
1004.94	6.79703
1005.108	8.62116
1005.275	-1.1244
1005.443	-2.23393
1005.61	-9.30764
1005.778	-4.58038
1005.945	-8.91625
1006.113	0.24354
1006.28	-3.08207
1006.448	2.10266
1006.615	-1.71059
1006.783	0.70214
1006.95	-7.38353
1007.118	-7.44964
1007.285	-8.88362
1007.452	-7.67708
1007.62	-6.63355
1007.787	-3.57003
1007.954	0.89585
1008.122	-1.97233
1008.289	-1.6453
1008.456	-4.8079
1008.623	-4.67828
1008.791	-5.03808
1008.958	-3.92904
1009.125	-5.91587
1009.292	-7.41489
1009.459	-6.86086
1009.627	0.40711
1009.794	-0.04909
1009.961	-4.48204
1010.128	-3.63439
1010.295	-1.44988
1010.462	3.53736
1010.629	-1.41735
1010.796	-6.07937
1010.963	-9.89444
1011.13	-4.7769
1011.297	-4.32084
1011.464	3.01361
1011.631	0.1128
1011.798	5.78472
1011.965	7.12143
1012.132	11.58674
1012.299	12.13977
1012.466	6.0448
1012.633	3.99178
1012.799	0.30973
1012.966	1.41816
1013.133	-4.0576
1013.3	-1.90586
1013.467	-2.46
1013.633	-1.84119
1013.8	-2.88442
1013.967	-3.07989
1014.134	-1.67807
1014.3	-1.77595
1014.467	1.64663
1014.634	-0.99435
1014.8	-5.45966
1014.967	-11.52313
1015.134	2.45865
1015.3	12.92175
1015.467	19.6379
1015.633	14.88155
1015.8	7.28624
1015.966	3.53693
1016.133	-3.60127
1016.3	3.99707
1016.466	3.47558
1016.632	5.72389
1016.799	1.87266
1016.965	7.0868
1017.132	7.05431
1017.298	4.51349
1017.465	-4.31748
1017.631	-6.20853
1017.797	-1.84116
1017.964	3.37275
1018.13	3.56875
1018.296	-3.01558
1018.463	-3.79786
1018.629	5.62381
1018.795	9.69815
1018.961	9.89376
1019.128	1.71091
1019.294	-2.65698
1019.46	0.11415
1019.626	-0.76607
1019.792	3.14591
1019.959	5.331
1020.125	7.35195
1020.291	11.03675
1020.457	11.32699
1020.623	11.65306
1020.789	6.2083
1020.955	-4.15616
1021.121	-4.93845
1021.287	-7.48117
1021.453	-4.87374
1021.619	-3.11298
1021.785	-3.30838
1021.951	-0.01533
1022.117	-2.62344
1022.283	0.21213
1022.449	-1.64647
1022.615	1.41628
1022.781	0.89488
1022.946	-1.35362
1023.112	-6.045
1023.278	-5.65372
1023.444	-2.85064
1023.61	2.5925
1023.775	-1.74373
1023.941	-2.55907
1024.107	-4.51576
1024.273	3.37518
1024.438	5.68976
1024.604	11.54548
1024.77	2.61399
1024.935	0.72326
1025.101	1.22329
1025.267	8.65322
1025.432	13.60949
1025.598	6.89501
1025.763	3.53786
1025.929	2.59143
1026.095	4.09042
1026.26	5.91613
1026.426	3.08002
1026.591	-0.24417
1026.757	-5.23191
1026.922	-2.68951
1027.087	-4.18968
1027.253	-2.7554
1027.418	-3.04891
1027.584	-3.53856
1027.749	0.95992
1027.914	3.14638
1028.08	6.96162
1028.245	-2.78567
1028.41	-3.30868
1028.576	-3.34136
1028.741	4.25459
1028.906	1.74395
1029.072	1.0268
1029.237	0.11401
1029.402	-4.74143
1029.567	-3.53529
1029.732	-3.95943
1029.898	1.12442
1030.063	1.61319
1030.228	-1.64513
1030.393	-8.8174
1030.558	-11.06677
1030.723	-6.40631
1030.888	1.64565
1031.053	1.12394
1031.218	-0.34265
1031.383	-1.02711
1031.548	0.17933
1031.713	-0.11426
1031.878	-7.19012
1032.043	-10.93846
1032.208	-5.10198
1032.373	-3.04614
1032.538	5.72284
1032.703	0.53874
1032.868	7.354
1033.033	-1.77315
1033.198	-1.93663
1033.362	-4.97036
1033.527	-4.70952
1033.692	-1.02615
1033.857	-5.91589
1034.021	-3.34151
1034.186	-5.00377
1034.351	1.54838
1034.516	2.52636
1034.68	1.77655
1034.845	0.83075
1035.01	5.94949
1035.174	4.12374
1035.339	0.40821
1035.504	0.1777
1035.668	8.49175
1035.833	15.23851
1035.997	10.93705
1036.162	4.7096
1036.326	-0.40737
1036.491	-2.36296
1036.655	0.17896
1036.82	2.72145
1036.984	5.557
1037.149	-0.50539
1037.313	-1.28798
1037.478	-6.66599
1037.642	-0.50446
1037.807	-4.05701
1037.971	0.01739
1038.135	-3.14538
1038.3	-2.29777
1038.464	-2.81976
1038.628	-5.00284
1038.792	-3.99286
1038.957	-3.2428
1039.121	-5.4284
1039.285	-7.48173
1039.449	-6.7972
1039.614	-2.2655
1039.778	-6.30529
1039.942	-10.08626
1040.106	-11.35743
1040.27	-4.384
1040.434	-0.27687
1040.599	4.22259
1040.763	8.98348
1040.927	5.00508
1041.091	4.02603
1041.255	-2.03867
1041.419	-2.13573
1041.583	-5.59075
1041.747	-5.10178
1041.911	-3.43864
1042.075	-5.10216
1042.239	-4.4503
1042.403	-3.92869
1042.567	3.56862
1042.731	5.26353
1042.894	2.52615
1043.058	0.40864
1043.222	-5.84829
1043.386	-4.3496
1043.55	-10.51054
1043.714	-5.29621
1043.877	-6.01406
1044.041	-7.31919
1044.205	-7.0258
1044.369	0.79918
1044.532	8.32888
1044.696	7.74198
1044.86	-1.18941
1045.023	-5.81672
1045.187	-9.27203
1045.351	-6.86204
1045.514	0.66604
1045.678	7.70673
1045.841	14.06328
