Data from H2O_Subt9__3__00043.txt Node

Date: Tue Nov 04 10:20:31 EST 2025
User: brett
Spectrometer: USB4F03499
Trigger mode: 4
Integration Time (sec): 3.000000E-2
Scans to average: 15
Electric dark correction enabled: true
Nonlinearity correction enabled: true
Boxcar width: 1
XAxis mode: Wavelengths
Number of Pixels in Spectrum: 3648
>>>>>Begin Spectral Data<<<<<
345.386	-5.39058
345.605	-5.39058
345.824	-0.75778
346.044	1.94951
346.263	1.0382
346.482	-3.82152
346.701	-1.44153
346.92	4.00208
347.139	5.92538
347.358	-1.83075
347.577	3.4838
347.796	4.1684
348.015	8.40314
348.234	-5.35651
348.453	-7.6056
348.672	-5.12817
348.891	-5.74547
349.11	6.37761
349.329	5.4322
349.548	14.88436
349.767	13.8787
349.986	18.21273
350.205	24.50568
350.424	22.0277
350.643	23.98479
350.862	14.36851
351.08	12.53879
351.299	9.83267
351.518	14.85168
351.737	16.21966
351.956	16.21968
352.174	16.64365
352.393	18.53577
352.612	20.32619
352.831	27.23729
353.049	29.35423
353.268	25.08674
353.487	24.36987
353.705	22.44875
353.924	30.95077
354.143	27.46171
354.361	27.81924
354.58	28.34412
354.798	30.3615
355.017	34.82439
355.236	33.12965
355.454	29.61128
355.673	32.95925
355.891	32.72988
356.11	36.50948
356.328	27.46147
356.547	30.35934
356.765	32.83453
356.984	37.13416
357.202	38.46995
357.42	36.57997
357.639	34.85022
357.857	32.0793
358.076	36.05209
358.294	45.40434
358.512	49.02094
358.731	50.32134
358.949	48.84512
359.167	49.4886
359.386	48.8409
359.604	42.87989
359.822	46.60122
360.04	48.06202
360.259	52.16658
360.477	47.93271
360.695	47.27815
360.913	51.32262
361.131	55.0947
361.35	53.04135
361.568	53.16734
361.786	46.91348
362.004	48.84514
362.222	52.16033
362.44	55.03373
362.658	55.74159
362.876	45.49241
363.094	50.96079
363.312	51.97744
363.53	55.03495
363.749	49.72561
363.967	47.4128
364.184	45.06787
364.402	48.75145
364.62	45.75727
364.838	47.03054
365.056	40.86761
365.274	40.21192
365.492	34.80825
365.71	32.46584
365.928	34.61844
366.146	34.61722
366.364	33.80898
366.581	24.1677
366.799	24.40062
367.017	24.27299
367.235	27.53067
367.453	24.07426
367.67	25.21326
367.888	22.83441
368.106	23.41432
368.323	20.414
368.541	17.44837
368.759	19.37794
368.977	22.27842
369.194	29.71025
369.412	27.36522
369.629	22.76823
369.847	15.82595
370.065	18.39979
370.282	20.51932
370.5	21.98601
370.717	21.16842
370.935	21.36401
371.152	27.74694
371.37	29.83092
371.588	27.12795
371.805	30.09469
372.022	26.9993
372.24	33.74192
372.457	28.59265
372.675	35.86644
372.892	29.80622
373.11	24.17171
373.327	19.0872
373.544	23.87724
373.762	32.18203
373.979	32.34001
374.196	36.60324
374.414	39.24234
374.631	42.9581
374.848	40.38502
375.066	38.3028
375.283	39.63504
375.5	38.82221
375.717	41.42897
375.935	39.3763
376.152	37.77764
376.369	36.86337
376.586	37.50993
376.803	44.41632
377.02	48.9416
377.238	49.21011
377.455	43.15064
377.672	41.62258
377.889	35.69423
378.106	41.91995
378.323	37.88443
378.54	39.8682
378.757	38.42892
378.974	37.25327
379.191	40.12355
379.408	40.90594
379.625	41.58296
379.842	44.71246
380.059	44.42296
380.276	50.48618
380.493	48.71726
380.71	50.50195
380.927	44.99254
381.143	48.32103
381.36	46.49368
381.577	58.35048
381.794	56.19246
382.011	49.65195
382.228	42.64347
382.444	40.56549
382.661	46.10741
382.878	41.78758
383.095	42.07861
383.311	39.66937
383.528	46.70233
383.745	51.52292
383.962	54.45283
384.178	49.14424
384.395	48.58939
384.612	46.66365
384.828	44.22066
385.045	38.58675
385.261	38.59012
385.478	44.0264
385.695	36.53729
385.911	37.80355
386.128	34.87781
386.344	43.99905
386.561	47.41637
386.777	47.96659
386.994	51.93649
387.21	49.3041
387.427	48.81914
387.643	47.48763
387.86	51.75059
388.076	60.4436
388.292	57.20903
388.509	51.22216
388.725	37.34537
388.942	40.77202
389.158	37.34878
389.374	38.97662
389.591	35.78696
389.807	40.44292
390.023	51.67908
390.239	50.83531
390.456	46.99031
390.672	38.52936
390.888	39.498
391.104	39.43716
391.321	42.43028
391.537	43.93326
391.753	44.7093
391.969	38.94108
392.185	35.97983
392.401	38.496
392.618	45.56606
392.834	47.02764
393.05	43.70241
393.266	39.00817
393.482	40.7635
393.698	45.87067
393.914	50.33265
394.13	54.6375
394.346	53.62996
394.562	53.1482
394.778	45.03737
394.994	45.00886
395.21	39.76071
395.426	44.32223
395.642	46.66872
395.858	51.22774
396.073	51.81077
396.289	46.79607
396.505	40.41533
396.721	41.78719
396.937	44.51966
397.153	47.64489
397.369	45.07517
397.584	44.74933
397.8	46.69711
398.016	45.25718
398.232	43.85496
398.447	40.08963
398.663	40.09391
398.879	38.85909
399.094	39.63491
399.31	37.51543
399.526	32.82658
399.741	34.35965
399.957	35.86146
400.173	40.42091
400.388	35.83025
400.604	33.31716
400.82	32.8923
401.035	41.19427
401.251	43.2164
401.466	45.30818
401.682	44.97748
401.897	44.91071
402.113	42.78965
402.328	38.4003
402.544	40.12449
402.759	37.90895
402.974	33.9974
403.19	37.74869
403.405	41.26363
403.621	42.65782
403.836	36.46968
404.051	38.52788
404.267	42.83391
404.482	42.27591
404.697	35.62877
404.913	30.97304
405.128	28.85811
405.343	34.62531
405.559	39.08565
405.774	44.03608
405.989	44.38772
406.204	48.84822
406.42	47.51364
406.635	51.87857
406.85	44.71303
407.065	46.53381
407.28	39.30889
407.495	42.17926
407.71	38.01178
407.926	40.1606
408.141	39.89289
408.356	37.74454
408.571	39.69563
408.786	37.55166
409.001	43.70936
409.216	45.5344
409.431	45.14106
409.646	47.64915
409.861	44.3859
410.076	47.97418
410.291	44.38824
410.506	46.22071
410.721	42.83035
410.936	49.99602
411.15	48.65403
411.365	50.56894
411.58	46.27178
411.795	53.85977
412.01	56.92467
412.225	64.70834
412.439	59.2396
412.654	64.34753
412.869	58.58224
413.084	58.81014
413.299	53.77111
413.513	50.70869
413.728	45.39756
413.943	43.01533
414.157	42.61936
414.372	44.01916
414.587	42.65187
414.801	38.87677
415.016	38.26311
415.231	38.95354
415.445	45.03906
415.66	47.67497
415.874	46.46608
416.089	43.54209
416.304	45.20089
416.518	52.14054
416.733	51.52007
416.947	53.89182
417.162	44.47423
417.376	45.38082
417.59	42.97683
417.805	46.43292
418.019	43.70213
418.234	47.67831
418.448	48.35963
418.663	51.00689
418.877	47.19809
419.091	38.50303
419.306	41.48964
419.52	39.01298
419.734	54.57031
419.949	51.54333
420.163	54.08513
420.377	45.3657
420.591	43.66887
420.806	37.31683
421.02	36.76561
421.234	34.91057
421.448	40.6753
421.663	42.20953
421.877	46.05618
422.091	42.44138
422.305	36.73906
422.519	36.31355
422.733	36.41143
422.947	41.84996
423.161	41.32608
423.376	42.52964
423.59	47.86846
423.804	44.93768
424.018	41.35202
424.232	36.46522
424.446	43.10698
424.66	48.3602
424.874	48.7586
425.088	45.35992
425.302	40.60174
425.515	40.62522
425.729	44.90649
425.943	48.55197
426.157	45.32713
426.371	43.13858
426.585	41.89535
426.799	47.8622
427.013	46.59881
427.226	50.18572
427.44	49.82456
427.654	49.85116
427.868	46.36639
428.081	40.60269
428.295	42.49829
428.509	42.46659
428.723	41.6823
428.936	40.60971
429.15	35.00538
429.364	36.05339
429.577	29.73565
429.791	37.12685
430.005	41.19474
430.218	49.89119
430.432	46.60588
430.645	35.1418
430.859	26.05459
431.073	26.86862
431.286	35.89648
431.5	40.45424
431.713	39.90239
431.927	39.73814
432.14	35.92913
432.354	34.27022
432.567	36.51489
432.781	34.46077
432.994	35.4971
433.207	36.34623
433.421	41.16712
433.634	46.0495
433.848	42.30043
434.061	41.28843
434.274	37.12587
434.488	36.69947
434.701	38.29647
434.914	34.71426
435.127	32.07981
435.341	30.15957
435.554	32.17647
435.767	36.18571
435.98	38.98461
436.194	45.07829
436.407	48.5294
436.62	53.97075
436.833	53.41488
437.046	50.58388
437.259	37.97645
437.473	35.53899
437.686	38.69066
437.899	44.97653
438.112	44.12737
438.325	38.16931
438.538	39.44284
438.751	49.56411
438.964	54.74497
439.177	53.69733
439.39	48.19475
439.603	55.25901
439.816	58.32075
440.029	61.07798
440.242	56.28451
440.455	61.23547
440.668	56.33275
440.881	56.37326
441.094	57.99614
441.306	65.02557
441.519	69.02517
441.732	64.89312
441.945	65.46964
442.158	59.86956
442.37	62.22034
442.583	60.58075
442.796	62.85476
443.009	56.6634
443.222	52.84481
443.434	55.68177
443.647	54.63693
443.86	60.03546
444.072	61.46788
444.285	62.28005
444.498	54.66985
444.71	53.4677
444.923	54.15379
445.136	52.45525
445.348	50.28054
445.561	52.47042
445.773	57.45412
445.986	56.66997
446.198	58.39578
446.411	58.82131
446.623	56.57093
446.836	54.09882
447.048	44.71755
447.261	41.19801
447.473	37.70061
447.686	41.2501
447.898	40.63377
448.11	52.99352
448.323	53.15832
448.535	52.27628
448.748	38.39346
448.96	36.66444
449.172	38.88164
449.385	39.23971
449.597	40.3822
449.809	39.40507
450.021	41.35748
450.234	44.21764
450.446	47.66473
450.658	53.53441
450.87	50.79934
451.083	51.18684
451.295	47.49631
451.507	56.5815
451.719	55.25422
451.931	58.60074
452.143	62.24963
452.356	65.21113
452.568	69.83157
452.78	59.87245
452.992	64.22704
453.204	56.45393
453.416	60.35152
453.628	61.76001
453.84	68.13802
454.052	74.81507
454.264	76.4641
454.476	76.76338
454.688	73.15138
454.9	77.41784
455.112	73.76407
455.324	77.51012
455.536	75.85372
455.747	75.72217
455.959	75.3834
456.171	69.95285
456.383	75.86941
456.595	75.25608
456.807	73.5341
457.018	73.70601
457.23	66.1544
457.442	69.72189
457.654	70.39802
457.865	70.16415
458.077	70.42937
458.289	67.901
458.501	73.87437
458.712	74.30892
458.924	72.65335
459.136	67.50506
459.347	61.3782
459.559	61.05454
459.77	56.2398
459.982	57.33925
460.194	50.69483
460.405	59.18975
460.617	62.48383
460.828	67.79458
461.04	59.81281
461.251	60.52836
461.463	55.57657
461.674	51.93082
461.886	41.02438
462.097	45.02693
462.309	53.2736
462.52	58.29742
462.731	52.80021
462.943	50.87979
463.154	47.28486
463.366	53.44252
463.577	44.83905
463.788	50.0645
464	44.78194
464.211	49.73734
464.422	45.95725
464.634	47.84999
464.845	53.89761
465.056	59.06892
465.267	58.90823
465.478	55.79507
465.69	49.05221
465.901	52.43468
466.112	51.81189
466.323	51.22936
466.534	46.86177
466.745	51.08944
466.957	52.03078
467.168	51.12462
467.379	49.01716
467.59	55.98144
467.801	59.75227
468.012	55.28188
468.223	47.1171
468.434	41.45083
468.645	40.60183
468.856	44.99484
469.067	45.68298
469.278	52.59005
469.489	48.61786
469.7	47.31606
469.911	43.83232
470.122	49.95882
470.333	60.94161
470.543	55.27499
470.754	54.78339
470.965	46.56906
471.176	53.27429
471.387	52.42543
471.598	56.23663
471.808	61.1669
472.019	61.74823
472.23	62.85015
472.441	61.50457
472.651	60.95956
472.862	64.59868
473.073	63.46059
473.283	65.73195
473.494	58.2205
473.705	63.25774
473.915	60.5469
474.126	62.55871
474.337	55.82916
474.547	52.68183
474.758	58.21886
474.968	64.00337
475.179	68.6488
475.389	71.95311
475.6	67.9452
475.81	70.01139
476.021	67.39877
476.231	66.36844
476.442	60.50742
476.652	57.34443
476.863	57.44529
477.073	65.89775
477.284	67.32921
477.494	71.03377
477.704	65.63729
477.915	60.78563
478.125	62.15964
478.335	58.15291
478.546	66.25751
478.756	58.10856
478.966	65.27504
479.177	61.66245
479.387	68.8313
479.597	70.81742
479.807	71.40822
480.018	66.16361
480.228	64.01507
480.438	66.51354
480.648	75.80468
480.858	74.26536
481.068	71.03251
481.279	70.55412
481.489	78.40613
481.699	82.86662
481.909	87.06187
482.119	89.84263
482.329	100.30089
482.539	109.13807
482.749	114.85177
482.959	119.15237
483.169	124.44165
483.379	130.38795
483.589	132.78902
483.799	139.6216
484.009	153.94709
484.219	169.52315
484.429	173.45412
484.639	179.65063
484.849	180.94249
485.059	184.29061
485.268	180.75818
485.478	177.43987
485.688	183.13547
485.898	187.30718
486.108	198.43609
486.317	207.06215
486.527	219.65146
486.737	234.48449
486.947	243.66272
487.156	259.58129
487.366	261.08053
487.576	281.33335
487.785	283.6
487.995	294.16551
488.205	286.36194
488.414	292.12833
488.624	297.46564
488.834	301.02558
489.043	303.58565
489.253	305.92929
489.462	310.24481
489.672	304.65929
489.882	305.48483
490.091	307.15213
490.301	312.84933
490.51	312.48116
490.72	309.62313
490.929	305.88579
491.138	296.56933
491.348	295.52624
491.557	288.50192
491.767	281.8814
491.976	269.33475
492.185	259.04139
492.395	258.1933
492.604	259.93899
492.813	265.81473
493.023	257.83767
493.232	251.24047
493.441	241.47012
493.651	236.06918
493.86	230.66492
494.069	227.79156
494.278	225.43821
494.488	217.65464
494.697	207.45279
494.906	199.77351
495.115	191.00771
495.324	186.84861
495.533	179.33982
495.743	180.26321
495.952	178.08064
496.161	175.28603
496.37	168.83217
496.579	162.73938
496.788	160.7497
496.997	151.84577
497.206	140.66641
497.415	129.16176
497.624	124.50441
497.833	113.16552
498.042	108.31265
498.251	96.46259
498.46	100.1423
498.669	99.00902
498.878	102.0137
499.087	106.15038
499.296	107.77491
499.504	109.68542
499.713	103.53224
499.922	102.00786
500.131	90.55417
500.34	84.49702
500.549	84.9827
500.757	92.12017
500.966	94.17831
501.175	90.56347
501.384	92.4997
501.592	99.6876
501.801	103.65319
502.01	99.53151
502.218	96.35371
502.427	94.41193
502.636	102.1241
502.844	105.78844
503.053	107.64588
503.262	101.56394
503.47	102.3735
503.679	103.78225
503.887	100.07138
504.096	96.54065
504.304	93.93043
504.513	93.80033
504.721	88.54514
504.93	86.39747
505.138	93.18278
505.347	97.8477
505.555	95.98661
505.764	91.60817
505.972	89.7516
506.18	90.28054
506.389	90.52675
506.597	92.12465
506.806	94.78076
507.014	101.18043
507.222	101.63704
507.431	95.6568
507.639	92.97872
507.847	91.1775
508.055	99.21876
508.264	103.0168
508.472	102.39928
508.68	102.14072
508.888	95.86744
509.096	93.55915
509.305	92.61112
509.513	92.65656
509.721	92.42082
509.929	89.92106
510.137	90.26682
510.345	95.39022
510.553	99.83759
510.762	99.64798
510.97	102.37325
511.178	97.66045
511.386	102.39489
511.594	98.02963
511.802	93.98626
512.01	92.66927
512.218	94.40085
512.426	93.84617
512.634	91.69533
512.842	90.8823
513.049	95.97182
513.257	103.58655
513.465	102.31086
513.673	104.74679
513.881	102.73548
514.089	104.69036
514.297	103.61413
514.504	98.87197
514.712	90.13808
514.92	90.7818
515.128	84.02563
515.336	94.51
515.543	95.09668
515.751	103.35497
515.959	102.7157
516.166	104.6502
516.374	104.68301
516.582	102.64902
516.789	100.85797
516.997	104.99966
517.205	109.72319
517.412	114.19198
517.62	115.18085
517.827	108.47881
518.035	109.77939
518.243	117.42907
518.45	129.12375
518.658	132.43133
518.865	136.05878
519.073	139.67149
519.28	149.64643
519.488	153.99961
519.695	166.74818
519.902	173.09316
520.11	188.73367
520.317	205.03246
520.525	214.86143
520.732	221.50622
520.939	225.6497
521.147	239.7571
521.354	243.12563
521.561	248.25211
521.769	246.17108
521.976	248.85268
522.183	246.8536
522.391	248.92101
522.598	247.01536
522.805	248.91746
523.012	248.36533
523.219	255.39038
523.427	249.98389
523.634	250.35753
523.841	241.44125
524.048	247.76313
524.255	246.26283
524.462	245.72768
524.669	238.98961
524.877	240.48528
525.084	243.69969
525.291	244.9347
525.498	239.16802
525.705	228.86934
525.912	222.2055
526.119	221.50109
526.326	218.38591
526.533	222.76288
526.74	214.30523
526.947	209.99495
527.153	204.60527
527.36	200.35879
527.567	205.5216
527.774	194.2014
527.981	192.52358
528.188	180.48218
528.395	181.2416
528.602	174.1394
528.808	167.88521
529.015	158.92679
529.222	143.32082
529.429	139.68384
529.635	127.45043
529.842	128.1933
530.049	121.01134
530.256	116.58302
530.462	113.40666
530.669	104.37208
530.876	101.50575
531.082	93.79807
531.289	95.14804
531.495	96.82269
531.702	94.74343
531.909	89.76317
532.115	79.98766
532.322	79.08026
532.528	78.85163
532.735	80.35903
532.941	82.41017
533.148	84.07794
533.354	83.90634
533.561	84.23595
533.767	85.26971
533.974	91.1664
534.18	87.96873
534.387	86.06173
534.593	77.91674
534.799	77.98728
535.006	83.18136
535.212	84.10293
535.418	89.58239
535.625	89.74382
535.831	96.60224
536.037	91.70533
536.244	85.09587
536.45	82.72511
536.656	87.70213
536.862	89.44291
537.068	86.96694
537.275	84.55888
537.481	82.921
537.687	84.94462
537.893	84.78774
538.099	89.30955
538.305	92.62424
538.512	95.36009
538.718	91.44938
538.924	89.30052
539.13	88.35945
539.336	86.64729
539.542	83.71552
539.748	79.35802
539.954	85.71536
540.16	87.38141
540.366	90.06232
540.572	86.76885
540.778	89.33217
540.984	94.04128
541.19	97.42036
541.396	92.53849
541.602	82.8919
541.807	81.88333
542.013	86.44478
542.219	89.04711
542.425	83.51257
542.631	80.03468
542.837	81.68824
543.042	86.90387
543.248	87.52138
543.454	91.5906
543.66	87.61587
543.865	91.65471
544.071	89.68301
544.277	92.52242
544.483	93.5838
544.688	92.02022
544.894	90.58318
545.1	84.60594
545.305	80.01292
545.511	78.73515
545.716	76.62017
545.922	79.48412
546.128	85.14931
546.333	85.37983
546.539	84.02023
546.744	77.34607
546.95	75.81394
547.155	80.16647
547.361	75.66924
547.566	78.92518
547.772	69.0014
547.977	70.05838
548.182	70.44044
548.388	80.30319
548.593	84.71887
548.799	82.35619
549.004	78.64628
549.209	72.79303
549.415	67.48391
549.62	74.00126
549.825	76.3744
550.031	87.83145
550.236	86.71618
550.441	89.98496
550.646	87.70138
550.852	82.92527
551.057	78.20289
551.262	71.13727
551.467	72.85849
551.672	69.65552
551.878	70.83877
552.083	64.72461
552.288	66.67851
552.493	61.49777
552.698	62.50519
552.903	63.75403
553.108	68.71854
553.313	71.07219
553.518	74.35972
553.723	77.83135
553.928	76.35734
554.133	71.88578
554.338	68.92265
554.543	70.96241
554.748	71.61375
554.953	76.31212
555.158	78.47064
555.363	76.90761
555.568	77.21102
555.773	72.32364
555.978	71.41461
556.182	67.46121
556.387	70.80824
556.592	70.8459
556.797	69.20307
557.002	66.7261
557.206	75.74206
557.411	82.71836
557.616	90.3412
557.821	89.65721
558.025	83.7844
558.23	78.13034
558.435	76.36047
558.64	85.46899
558.844	83.7235
559.049	90.56028
559.253	92.11591
559.458	97.87423
559.663	98.15399
559.867	95.2616
560.072	101.69043
560.276	106.0749
560.481	116.59285
560.685	124.5995
560.89	129.92054
561.094	132.94975
561.299	134.54103
561.503	139.76981
561.708	143.0684
561.912	146.40178
562.117	154.11323
562.321	166.20424
562.525	178.72674
562.73	178.46932
562.934	178.19792
563.139	176.82598
563.343	182.35259
563.547	184.08522
563.752	185.47337
563.956	183.74562
564.16	188.10498
564.364	184.84602
564.569	188.62608
564.773	182.65718
564.977	184.2697
565.181	183.61525
565.385	184.10885
565.59	184.82253
565.794	180.37844
565.998	170.04547
566.202	164.37336
566.406	165.05316
566.61	169.08913
566.814	169.74648
567.018	171.3703
567.222	173.60749
567.426	175.0915
567.63	170.21173
567.834	166.34514
568.038	167.5358
568.242	173.32892
568.446	176.71525
568.65	171.23679
568.854	160.68821
569.058	156.03142
569.262	148.06448
569.466	143.48503
569.67	133.52863
569.874	134.56463
570.078	130.10699
570.281	126.96575
570.485	119.0339
570.689	122.59412
570.893	129.22637
571.097	128.94181
571.3	126.93086
571.504	115.67716
571.708	113.768
571.912	108.34182
572.115	105.85044
572.319	105.23428
572.523	98.14732
572.726	102.30602
572.93	91.0983
573.133	88.1621
573.337	80.94706
573.541	86.26868
573.744	84.81568
573.948	87.97293
574.151	85.1338
574.355	80.93087
574.558	77.8505
574.762	74.37077
574.965	81.83684
575.169	85.6897
575.372	91.03024
575.576	94.2379
575.779	91.01671
575.983	93.15884
576.186	82.8754
576.389	83.66918
576.593	84.47066
576.796	94.29016
577	95.23302
577.203	91.86422
577.406	86.27775
577.609	84.1264
577.813	89.17142
578.016	89.40282
578.219	87.71763
578.423	87.48032
578.626	85.00629
578.829	83.79925
579.032	76.12917
579.235	80.57704
579.438	88.48284
579.642	90.98787
579.845	89.03829
580.048	77.87142
580.251	79.10554
580.454	84.66807
580.657	95.61159
580.86	96.79463
581.063	91.54023
581.266	87.8284
581.469	86.24546
581.672	87.22192
581.875	80.08432
582.078	84.70749
582.281	91.39666
582.484	100.00887
582.687	92.92854
582.89	87.40106
583.093	91.06913
583.296	98.87456
583.499	104.72663
583.702	96.46864
583.904	97.10072
584.107	100.47836
584.31	101.56884
584.513	99.43009
584.716	89.25688
584.918	99.57284
585.121	100.47931
585.324	103.82751
585.527	97.86266
585.729	96.89013
585.932	95.04442
586.135	91.73895
586.337	92.70411
586.54	89.96091
586.743	96.55006
586.945	95.32677
587.148	101.89651
587.35	95.66065
587.553	98.96645
587.755	99.53153
587.958	104.02583
588.161	105.24463
588.363	102.44376
588.566	106.42321
588.768	103.6019
588.971	102.65487
589.173	96.84318
589.375	94.06563
589.578	90.25912
589.78	84.27537
589.983	82.09776
590.185	88.73572
590.387	95.27663
590.59	101.74957
590.792	95.86448
590.994	98.1446
591.197	94.92752
591.399	95.73277
591.601	88.93956
591.803	82.17893
592.006	81.75575
592.208	78.79361
592.41	82.06047
592.612	85.90729
592.815	89.09976
593.017	90.06386
593.219	81.08305
593.421	82.53946
593.623	77.74643
593.825	82.90915
594.027	82.42945
594.229	81.81724
594.432	83.35712
594.634	84.61686
594.836	84.91251
595.038	93.01025
595.24	97.82664
595.442	100.28881
595.644	93.85372
595.846	81.96803
596.048	91.90822
596.249	92.16314
596.451	96.01722
596.653	88.06386
596.855	84.55973
597.057	95.70006
597.259	92.22957
597.461	92.88702
597.663	86.16742
597.864	90.10647
598.066	88.14329
598.268	90.84774
598.47	94.97869
598.671	98.85032
598.873	92.7585
599.075	90.2025
599.277	90.07679
599.478	93.58055
599.68	93.63371
599.882	97.24091
600.083	101.27646
600.285	99.47714
600.487	97.84604
600.688	91.71128
600.89	92.63398
601.091	89.93974
601.293	95.89383
601.494	102.26052
601.696	108.13659
601.898	106.80569
602.099	102.64101
602.301	100.62726
602.502	100.31666
602.703	100.05921
602.905	98.68184
603.106	91.56965
603.308	96.47568
603.509	98.20269
603.711	108.51415
603.912	105.57975
604.113	108.2214
604.315	107.33118
604.516	110.7223
604.717	110.79846
604.919	107.32994
605.12	111.68582
605.321	116.35086
605.522	121.75883
605.724	121.46688
605.925	121.34575
606.126	119.13904
606.327	121.56963
606.528	118.74843
606.729	125.46061
606.931	128.3014
607.132	134.5316
607.333	135.40642
607.534	134.40158
607.735	135.6263
607.936	139.27144
608.137	144.35714
608.338	147.98764
608.539	154.58948
608.74	148.92461
608.941	152.76844
609.142	149.33394
609.343	160.73114
609.544	158.08907
609.745	154.30178
609.946	150.89963
610.147	148.79348
610.348	154.62716
610.549	157.96936
610.75	168.26885
610.95	168.04692
611.151	164.43746
611.352	162.5872
611.553	161.24028
611.754	161.3957
611.954	153.3873
612.155	151.72026
612.356	143.7622
612.557	146.70218
612.757	147.73999
612.958	154.7818
613.159	151.00383
613.359	145.57121
613.56	136.68952
613.761	138.81248
613.961	137.92245
614.162	142.07273
614.362	142.14163
614.563	144.75187
614.764	145.08694
614.964	138.48399
615.165	132.50018
615.365	126.93928
615.566	129.72602
615.766	130.54059
615.967	130.50913
616.167	130.74352
616.368	127.09297
616.568	117.86914
616.768	111.18194
616.969	109.92102
617.169	109.26458
617.37	101.04094
617.57	104.11485
617.77	103.6035
617.971	102.14194
618.171	91.27011
618.371	92.20985
618.571	96.25779
618.772	98.73434
618.972	94.41668
619.172	89.3297
619.372	87.26513
619.573	92.03744
619.773	92.89166
619.973	89.17382
620.173	83.55239
620.373	79.44298
620.573	78.2373
620.774	77.52306
620.974	75.50262
621.174	77.42318
621.374	77.43445
621.574	77.95397
621.774	82.29388
621.974	77.17677
622.174	75.79049
622.374	68.2955
622.574	66.38606
622.774	67.38899
622.974	68.76413
623.174	73.73436
623.374	74.00036
623.574	70.12635
623.774	72.53915
623.973	72.8746
624.173	70.58989
624.373	59.44656
624.573	57.09708
624.773	60.90648
624.973	64.10606
625.172	62.77203
625.372	62.2283
625.572	63.88365
625.772	59.58528
625.971	60.06699
626.171	58.30941
626.371	60.94623
626.57	61.11576
626.77	62.4184
626.97	60.76323
627.169	57.20606
627.369	61.38471
627.569	63.33613
627.768	67.18031
627.968	65.55317
628.167	65.87791
628.367	65.97439
628.566	59.22946
628.766	56.03694
628.965	50.83618
629.165	54.24974
629.364	55.8799
629.564	64.39564
629.763	59.48317
629.963	58.82887
630.162	55.15495
630.362	58.44053
630.561	66.02752
630.76	61.93122
630.96	62.16823
631.159	62.13271
631.358	62.48821
631.558	66.94337
631.757	64.92376
631.956	68.33388
632.155	64.68689
632.355	60.35867
632.554	59.39294
632.753	61.73936
632.952	61.31305
633.152	59.19465
633.351	58.41245
633.55	62.55153
633.749	71.43652
633.948	68.85804
634.147	67.1072
634.346	60.62748
634.545	59.84858
634.744	59.22775
634.944	59.39618
635.143	56.72649
635.342	63.3973
635.541	63.25966
635.74	71.04705
635.939	62.77081
636.138	59.35563
636.336	56.97499
636.535	57.47649
636.734	54.96951
636.933	51.55164
637.132	48.97396
637.331	53.11137
637.53	52.49294
637.729	55.13459
637.928	50.34412
638.126	50.02134
638.325	50.85589
638.524	54.66775
638.723	56.12805
638.921	50.73188
639.12	51.67617
639.319	47.51111
639.518	48.64944
639.716	51.8217
639.915	61.01183
640.114	58.8935
640.312	49.43548
640.511	44.84064
640.71	45.00788
640.908	51.1937
641.107	49.43196
641.305	50.70044
641.504	45.49248
641.702	44.31871
641.901	41.44777
642.099	42.102
642.298	43.8606
642.496	45.99143
642.695	44.72018
642.893	41.53467
643.092	39.44108
643.29	42.50733
643.489	43.01996
643.687	45.89251
643.885	46.28191
644.084	46.18875
644.282	44.48961
644.48	42.4042
644.679	43.99307
644.877	39.00896
645.075	36.72789
645.274	38.95597
645.472	44.16099
645.67	49.04282
645.868	50.60037
646.067	51.58197
646.265	51.58584
646.463	48.71927
646.661	44.87253
646.859	46.10662
647.057	39.26572
647.256	48.62151
647.454	44.1247
647.652	45.07179
647.85	40.93225
648.048	43.41879
648.246	48.89165
648.444	46.22285
648.642	43.34958
648.84	41.16135
649.038	44.14985
649.236	44.64031
649.434	45.29235
649.632	45.75781
649.83	53.27658
650.028	50.28203
650.226	50.28088
650.423	45.7277
650.621	49.40684
650.819	41.42369
651.017	42.566
651.215	38.26838
651.413	44.49283
651.61	43.34692
651.808	47.22789
652.006	43.64347
652.204	34.81671
652.401	34.45288
652.599	40.80292
652.797	44.87674
652.995	45.56275
653.192	45.53203
653.39	50.3535
653.588	41.75406
653.785	38.65663
653.983	31.75127
654.18	40.15
654.378	44.12158
654.576	57.43579
654.773	58.54324
654.971	61.44979
655.168	57.64603
655.366	55.26948
655.563	54.32658
655.761	53.34829
655.958	53.73989
656.156	51.58279
656.353	54.46541
656.55	75.66262
656.748	99.04368
656.945	136.54822
657.143	184.55792
657.34	243.45142
657.537	307.68072
657.735	380.08848
657.932	473.54443
658.129	573.25857
658.326	683.98857
658.524	795.96384
658.721	907.55379
658.918	1003.16778
659.115	1080.48632
659.313	1147.88153
659.51	1199.88033
659.707	1239.40613
659.904	1279.63319
660.101	1308.80377
660.298	1319.60743
660.496	1323.49574
660.693	1319.14642
660.89	1325.11861
661.087	1322.14906
661.284	1328.04622
661.481	1334.36749
661.678	1327.21042
661.875	1313.05233
662.072	1299.32508
662.269	1298.40645
662.466	1299.86283
662.663	1297.84129
662.86	1289.15029
663.057	1278.14244
663.254	1263.5873
663.45	1244.46736
663.647	1220.29954
663.844	1200.68994
664.041	1189.54639
664.238	1185.76097
664.435	1180.49446
664.631	1169.12276
664.828	1163.73718
665.025	1161.23863
665.222	1149.73145
665.419	1125.04005
665.615	1091.42247
665.812	1066.27252
666.009	1028.28045
666.205	980.96927
666.402	918.90648
666.599	870.69157
666.795	828.07124
666.992	813.18357
667.188	787.55298
667.385	769.10982
667.582	732.37593
667.778	713.61989
667.975	684.38923
668.171	654.80687
668.368	616.77042
668.564	584.24126
668.761	540.88311
668.957	494.26402
669.154	442.53487
669.35	384.45404
669.547	331.28989
669.743	270.33431
669.939	218.21114
670.136	164.88786
670.332	120.36234
670.528	95.43397
670.725	75.26456
670.921	61.89807
671.117	49.85508
671.314	42.92829
671.51	42.43631
671.706	40.74213
671.902	39.53113
672.099	44.22421
672.295	46.5032
672.491	50.67312
672.687	42.91849
672.883	39.79579
673.08	40.05897
673.276	40.7438
673.472	43.27995
673.668	41.36441
673.864	41.13779
674.06	37.98469
674.256	35.07749
674.452	36.50893
674.648	38.2968
674.844	36.83056
675.04	38.33389
675.236	35.95169
675.432	36.14509
675.628	38.0957
675.824	39.56595
676.02	48.92437
676.216	45.69882
676.412	47.4521
676.608	43.50089
676.804	49.06817
676.999	54.86943
677.195	55.48955
677.391	52.03323
677.587	55.2564
677.783	57.21415
677.978	51.28887
678.174	47.54155
678.37	43.63411
678.566	46.01111
678.761	38.94397
678.957	34.50985
679.153	42.46492
679.348	48.22601
679.544	54.09346
679.74	49.39364
679.935	43.80032
680.131	47.74055
680.327	50.0624
680.522	49.38021
680.718	37.32609
680.913	39.86204
681.109	41.91217
681.304	48.55914
681.5	44.15934
681.695	41.78203
681.891	40.77566
682.086	44.95371
682.282	50.79366
682.477	47.98497
682.672	37.36363
682.868	36.66931
683.063	41.29933
683.259	44.65152
683.454	47.87759
683.649	43.28859
683.845	43.71743
684.04	35.8318
684.235	39.51361
684.43	41.06859
684.626	41.56214
684.821	36.04863
685.016	32.16398
685.211	32.38588
685.407	24.44032
685.602	22.36997
685.797	17.19421
685.992	29.24849
686.187	24.00456
686.382	28.27319
686.577	22.63861
686.773	28.01444
686.968	21.95472
687.163	26.60962
687.358	32.70479
687.553	35.96369
687.748	34.59911
687.943	27.71981
688.138	25.99092
688.333	19.86387
688.528	19.86407
688.723	23.02643
688.918	27.88254
689.112	30.03394
689.307	30.78566
689.502	26.94181
689.697	25.24842
689.892	22.47644
690.087	26.77728
690.282	19.96638
690.476	22.76859
690.671	27.55127
690.866	34.62531
691.061	40.13283
691.255	34.79155
691.45	28.79326
691.645	18.79047
691.84	19.99942
692.034	28.89147
692.229	28.0743
692.424	19.79877
692.618	19.57021
692.813	15.10717
693.007	18.45984
693.202	15.13901
693.397	26.76848
693.591	28.04226
693.786	26.41316
693.98	20.68235
694.175	23.97337
694.369	26.3213
694.564	27.4262
694.758	24.00486
694.953	24.19895
695.147	27.94931
695.342	24.23607
695.536	20.68567
695.73	16.71051
695.925	25.63623
696.119	32.6398
696.313	27.39334
696.508	18.79289
696.702	19.93849
696.896	18.01546
697.091	17.72435
697.285	11.9555
697.479	18.60564
697.673	19.25441
697.868	20.2986
698.062	23.13047
698.256	27.07546
698.45	23.19383
698.644	21.95572
698.839	22.05212
699.033	24.49669
699.227	23.61709
699.421	24.79054
699.615	20.74947
699.809	21.13897
700.003	21.00885
700.197	22.93132
700.391	22.83507
700.585	18.30416
700.779	27.19727
700.973	24.06934
701.167	28.46684
701.361	23.35507
701.555	26.90747
701.749	20.75165
701.943	18.73044
702.137	16.77419
702.331	18.5975
702.525	21.20678
702.718	20.39415
702.912	25.37821
703.106	23.38855
703.3	28.37644
703.494	24.2083
703.687	32.06292
703.881	25.54112
704.075	27.72629
704.269	17.68941
704.462	18.7662
704.656	22.31218
704.85	23.06056
705.043	31.66122
705.237	30.32742
705.431	33.81288
705.624	31.75848
705.818	27.58686
706.012	29.73813
706.205	24.94914
706.399	29.87055
706.592	25.37059
706.786	28.95897
706.979	35.57314
707.173	39.35479
707.366	36.3873
707.56	28.765
707.753	26.3542
707.947	26.81274
708.14	28.43703
708.333	26.25455
708.527	31.49524
708.72	27.03222
708.914	32.73402
709.107	26.18559
709.3	31.82719
709.494	26.61238
709.687	26.5498
709.88	24.39664
710.073	28.89254
710.267	33.28906
710.46	37.58723
710.653	33.02834
710.846	29.70446
711.04	28.60304
711.233	36.06208
711.426	36.61681
711.619	33.12475
711.812	33.19485
712.005	33.19516
712.198	35.11798
712.391	27.52295
712.585	23.84158
712.778	17.71788
712.971	13.18892
713.164	17.52343
713.357	14.16707
713.55	21.53151
713.743	15.92697
713.936	16.90368
714.129	14.78641
714.322	14.13483
714.514	18.53683
714.707	15.14799
714.9	18.60286
715.093	18.27528
715.286	23.22797
715.479	28.60038
715.672	28.66509
715.864	25.63347
716.057	22.11527
716.25	19.37692
716.443	21.88665
716.636	23.84632
716.828	30.20325
717.021	34.60032
717.214	33.81233
717.406	30.52105
717.599	30.726
717.792	35.12669
717.984	37.11355
718.177	35.57575
718.37	33.06615
718.562	32.67365
718.755	29.73775
718.947	27.94672
719.14	28.13989
719.333	28.9875
719.525	31.82179
719.718	32.89597
719.91	37.62049
720.103	32.14521
720.295	28.53165
720.487	30.51322
720.68	33.15323
720.872	32.27357
721.065	28.0401
721.257	27.38682
721.449	32.92841
721.642	38.69756
721.834	35.70287
722.026	35.76605
722.219	32.12011
722.411	36.48179
722.603	34.26588
722.796	31.10543
722.988	26.48462
723.18	29.12279
723.372	26.80919
723.565	34.03574
723.757	33.93955
723.949	36.70678
724.141	33.74843
724.333	31.78931
724.525	30.817
724.717	32.21625
724.91	31.40467
725.102	31.55884
725.294	32.0165
725.486	31.03971
725.678	29.21896
725.87	28.62565
726.062	30.02377
726.254	29.56883
726.446	33.60685
726.638	30.05564
726.83	28.00544
727.022	21.1676
727.213	22.76696
727.405	25.50121
727.597	27.8746
727.789	31.3623
727.981	32.76103
728.173	40.35506
728.365	40.09165
728.556	39.53515
728.748	29.99314
728.94	28.7238
729.132	28.33928
729.324	34.6585
729.515	35.25029
729.707	35.53863
729.899	31.10992
730.09	29.76867
730.282	26.86867
730.474	25.56603
730.665	32.4997
730.857	38.95421
731.049	45.11152
731.24	36.51757
731.432	37.33359
731.623	32.34764
731.815	40.00154
732.006	36.54479
732.198	35.1099
732.389	30.05785
732.581	29.80201
732.772	33.06033
732.964	32.83442
733.155	31.91916
733.347	28.85929
733.538	32.37982
733.729	38.76916
733.921	44.30359
734.112	40.00461
734.304	36.41521
734.495	30.62046
734.686	32.76554
734.877	32.21626
735.069	32.24359
735.26	27.61966
735.451	20.15523
735.643	20.09638
735.834	20.8147
736.025	25.6672
736.216	26.67325
736.407	32.20934
736.599	32.54235
736.79	30.23217
736.981	27.07189
737.172	29.6107
737.363	22.14804
737.554	24.2977
737.745	28.07681
737.936	33.6808
738.127	29.57908
738.318	15.73026
738.509	17.55412
738.7	19.67291
738.891	28.99191
739.082	32.83445
739.273	31.26819
739.464	29.28234
739.655	23.0622
739.846	20.55343
740.037	19.44506
740.228	17.84888
740.419	21.49765
740.609	18.95416
740.8	26.25264
740.991	17.22804
741.182	19.40675
741.373	19.21291
741.563	23.15611
741.754	21.23923
741.945	21.50112
742.136	26.25809
742.326	29.9075
742.517	30.0354
742.708	27.75254
742.898	28.76136
743.089	25.69517
743.28	23.08754
743.47	17.45075
743.661	16.77349
743.851	24.43651
744.042	28.83581
744.233	33.13057
744.423	28.04522
744.614	22.83089
744.804	21.07739
744.995	19.15379
745.185	29.97359
745.376	26.09129
745.566	30.00328
745.756	23.67731
745.947	23.38749
746.137	25.63438
746.328	24.36625
746.518	25.3411
746.708	23.25714
746.899	20.26002
747.089	26.65098
747.279	23.68313
747.47	31.99641
747.66	27.3318
747.85	21.79343
748.04	16.1177
748.231	15.79522
748.421	24.36443
748.611	27.82441
748.801	28.89863
748.991	29.35189
749.182	20.25674
749.372	13.7387
749.562	13.87552
749.752	22.11639
749.942	23.28899
750.132	18.98346
750.322	15.72755
750.512	18.13783
750.702	15.98911
750.892	17.74935
751.082	23.35637
751.272	27.56048
751.462	30.00227
751.652	32.21923
751.842	32.18603
752.032	31.73162
752.222	22.37788
752.412	18.10794
752.602	19.80129
752.792	32.63572
752.981	36.54351
753.171	34.6896
753.361	26.31927
753.551	24.62893
753.741	19.18542
753.93	23.45501
754.12	26.97098
754.31	38.21044
754.5	36.05709
754.689	37.52743
754.879	29.08933
755.069	28.50673
755.258	29.25195
755.448	29.51257
755.638	26.71069
755.827	23.06252
756.017	22.37941
756.206	27.56156
756.396	32.18764
756.586	36.94648
756.775	31.2715
756.965	24.42941
757.154	17.8453
757.344	17.0319
757.533	21.59457
757.723	25.14402
757.912	30.32218
758.101	30.8458
758.291	27.98042
758.48	27.03788
758.67	25.57
758.859	30.61906
759.048	29.67362
759.238	27.62123
759.427	18.14083
759.616	9.50696
759.806	12.07823
759.995	19.54406
760.184	28.309
760.373	23.74992
760.563	26.05662
760.752	23.77805
760.941	25.40694
761.13	21.69606
761.319	22.44174
761.509	26.09226
761.698	23.19184
761.887	23.42443
762.076	19.93531
762.265	24.72826
762.454	22.15041
762.643	21.76206
762.832	21.85776
763.021	23.55376
763.21	25.3738
763.399	29.83454
763.588	29.7047
763.777	30.94333
763.966	28.72784
764.155	29.50633
764.344	31.29804
764.533	27.61844
764.722	25.07667
764.911	22.24667
765.1	13.54596
765.288	19.31318
765.477	14.71651
765.666	23.35419
765.855	22.47562
766.044	31.17709
766.232	35.8339
766.421	28.60202
766.61	30.03324
766.799	33.448
766.987	36.86963
767.176	30.42148
767.365	22.15081
767.553	22.3417
767.742	21.03553
767.931	25.86
768.119	20.55247
768.308	26.2573
768.497	26.70683
768.685	30.22515
768.874	23.38174
769.062	18.6932
769.251	21.3334
769.439	21.23533
769.628	21.69402
769.816	20.19369
770.005	21.00628
770.193	21.30197
770.382	20.39192
770.57	19.5803
770.758	23.29594
770.947	22.90305
771.135	22.54344
771.323	15.47055
771.512	17.95185
771.7	18.30786
771.888	14.98271
772.077	14.13314
772.265	15.92789
772.453	18.72976
772.642	17.58862
772.83	17.84827
773.018	15.27432
773.206	20.09811
773.394	19.6101
773.583	24.66419
773.771	20.29519
773.959	23.52236
774.147	18.04446
774.335	15.76387
774.523	10.90824
774.711	18.92623
774.899	18.01378
775.087	21.98907
775.275	16.44737
775.463	27.59713
775.651	21.01524
775.839	21.27771
776.027	13.48631
776.215	19.55043
776.403	19.80824
776.591	17.00565
776.779	13.54688
776.967	10.91005
777.155	14.65438
777.343	16.58286
777.531	15.53903
777.718	9.3175
777.906	6.67251
778.094	10.71456
778.282	14.39444
778.47	16.28341
778.657	16.21853
778.845	23.71292
779.033	29.90069
779.22	27.32486
779.408	23.38466
779.596	16.71028
779.783	25.99208
779.971	32.5706
780.159	46.01382
780.346	47.61595
780.534	46.50608
780.722	47.29118
780.909	47.58223
781.097	44.45701
781.284	39.76722
781.472	44.09542
781.659	52.63363
781.847	52.95921
782.034	42.9908
782.222	41.7481
782.409	39.33911
782.597	46.85852
782.784	45.80417
782.971	55.24857
783.159	56.06615
783.346	55.06928
783.533	43.9656
783.721	44.87574
783.908	44.3809
784.095	50.11057
784.283	46.86057
784.47	53.01773
784.657	54.18412
784.844	55.32582
785.032	45.46381
785.219	34.92049
785.406	41.4966
785.593	42.56848
785.78	53.74139
785.968	43.58062
786.155	50.60742
786.342	43.76261
786.529	45.84526
786.716	38.20201
786.903	39.73086
787.09	38.3711
787.277	39.73548
787.464	36.09102
787.651	33.84103
787.838	27.39513
788.025	25.15114
788.212	21.49981
788.399	23.80977
788.586	25.18
788.773	27.52674
788.96	30.95727
789.147	30.56283
789.334	30.62759
789.521	23.71199
789.707	22.80345
789.894	25.31132
790.081	26.03005
790.268	20.22785
790.455	13.22236
790.641	7.51907
790.828	6.08518
791.015	9.54069
791.202	12.08207
791.388	20.94699
791.575	17.13528
791.762	14.26805
791.948	7.29268
792.135	4.42328
792.322	7.25694
792.508	9.8985
792.695	10.90947
792.881	11.69347
793.068	11.00868
793.254	15.93011
793.441	12.01916
793.627	7.74937
793.814	4.68692
794	6.41409
794.187	12.53927
794.373	13.05832
794.56	12.6673
794.746	9.18136
794.933	11.041
795.119	12.3112
795.305	21.34326
795.492	17.16982
795.678	16.58369
795.864	8.85576
796.051	13.71219
796.237	13.61493
796.423	13.09347
796.61	10.91114
796.796	21.33827
796.982	17.32967
797.168	11.98348
797.355	-2.4531
797.541	-1.76864
797.727	6.08556
797.913	5.53178
798.099	11.46368
798.285	6.11901
798.471	10.09435
798.658	12.04841
798.844	9.76697
799.03	9.24678
799.216	4.0967
799.402	5.53062
799.588	11.20123
799.774	9.34516
799.96	14.62433
800.146	11.88649
800.332	15.37106
800.518	12.50298
800.704	11.8837
800.89	17.91808
801.075	11.6288
801.261	15.24749
801.447	7.52091
801.633	15.53944
801.819	13.2905
802.005	12.60657
802.19	12.86598
802.376	11.04083
802.562	12.99643
802.748	9.90095
802.934	8.33664
803.119	4.52318
803.305	5.01094
803.491	6.96778
803.676	12.63805
803.862	12.54098
804.048	6.90031
804.233	-2.25756
804.419	2.46826
804.605	9.28004
804.79	16.45053
804.976	15.40538
805.161	13.61387
805.347	11.1695
805.532	12.50645
805.718	11.46282
805.903	16.51417
806.089	8.33508
806.274	11.00805
806.46	7.19503
806.645	8.62917
806.831	6.90239
807.016	5.24027
807.201	3.34958
807.387	0.64341
807.572	1.62156
807.757	4.71818
807.943	9.99927
808.128	13.58286
808.313	9.80239
808.499	10.7468
808.684	10.65095
808.869	16.64602
809.054	13.64806
809.24	6.24924
809.425	3.6117
809.61	4.78423
809.795	3.48021
809.98	7.55224
810.165	-0.10593
810.35	3.15323
810.536	-3.6901
810.721	-0.69276
810.906	-0.56261
811.091	2.07756
811.276	5.50076
811.461	0.05883
811.646	-2.12486
811.831	-10.17697
812.016	-2.77834
812.201	1.00193
812.386	3.60903
812.571	0.60965
812.756	0.2523
812.941	5.40267
813.125	4.26142
813.31	5.72662
813.495	3.4783
813.68	8.46533
813.865	1.81678
814.05	0.48005
814.234	-3.43085
814.419	-0.49748
814.604	0.90438
814.789	2.07738
814.973	3.83818
815.158	7.4562
815.343	8.5977
815.528	12.37833
815.712	9.86827
815.897	5.43486
816.081	1.62173
816.266	0.83984
816.451	6.34888
816.635	4.71873
816.82	9.67395
817.004	8.76104
817.189	10.52157
817.374	12.34218
817.558	8.49536
817.743	9.50483
817.927	4.97756
818.111	9.83498
818.296	12.60628
818.48	14.56245
818.665	19.71029
818.849	10.16019
819.034	6.73758
819.218	1.4925
819.402	7.42543
819.587	7.03357
819.771	1.10022
819.955	-0.36832
820.14	3.54408
820.324	5.23923
820.508	3.77319
820.692	0.15489
820.877	-0.49677
821.061	3.25185
821.245	4.3607
821.429	5.79465
821.613	7.23016
821.798	9.7391
821.982	11.04304
822.166	8.33584
822.35	3.74
822.534	3.93533
822.718	5.0774
822.902	3.64343
823.086	7.03186
823.27	3.34763
823.454	1.94553
823.638	-5.77846
823.822	-2.97571
824.006	5.4669
824.19	3.9986
824.374	1.88053
824.558	-2.61774
824.742	-1.44061
824.926	-3.59282
825.11	-7.56958
825.294	-7.01803
825.477	-5.09416
825.661	-4.80164
825.845	-2.48681
826.029	-3.66015
826.213	-0.43149
826.396	3.02415
826.58	3.67602
826.764	2.63237
826.948	3.18436
827.131	3.70592
827.315	2.40216
827.499	-2.71379
827.682	-5.35515
827.866	-2.55188
828.05	-0.49802
828.233	4.00118
828.417	5.43437
828.6	6.41223
828.784	6.80217
828.967	1.81595
829.151	4.94549
829.335	3.6105
829.518	3.51289
829.701	1.13343
829.885	3.2529
830.068	2.43697
830.252	-2.06168
830.435	1.68328
830.619	4.84581
830.802	16.74237
830.985	11.59409
831.169	7.19398
831.352	0.8715
831.535	-5.87555
831.719	2.07771
831.902	4.35824
832.085	4.78459
832.269	2.37233
832.452	-0.33229
832.635	6.93469
832.818	10.65063
833.002	7.78246
833.185	5.95665
833.368	7.75123
833.551	11.04238
833.734	9.60835
833.917	-1.05088
834.1	-1.14683
834.284	3.2549
834.467	7.00199
834.65	5.37138
834.833	4.9137
835.016	8.75955
835.199	7.97725
835.382	10.97667
835.565	6.90271
835.748	8.0434
835.931	4.62049
836.114	9.44524
836.297	0.93697
836.479	-2.9092
836.662	-2.35372
836.845	5.89373
837.028	10.91364
837.211	7.48856
837.394	9.83615
837.577	6.73918
837.759	8.92299
837.942	8.23703
838.125	7.94368
838.308	6.83616
838.49	10.18945
838.673	11.46053
838.856	16.93696
839.039	9.6077
839.221	6.57646
839.404	1.09927
839.587	2.10994
839.769	0.4798
839.952	-0.79085
840.134	3.41596
840.317	5.20891
840.499	6.34802
840.682	2.89104
840.865	2.95636
841.047	0.15503
841.23	5.07474
841.412	3.31496
841.595	-0.20539
841.777	-9.39621
841.959	-5.87616
842.142	-0.49868
842.324	-0.26877
842.507	-4.21357
842.689	-4.6042
842.871	-1.47567
843.054	3.67385
843.236	3.2504
843.418	4.71729
843.601	0.0567
843.783	1.48888
843.965	0.08699
844.147	4.91112
844.33	6.83615
844.512	11.49706
844.694	10.45491
844.876	5.4354
845.059	6.31696
845.241	2.01441
845.423	-0.39744
845.605	-8.77364
845.787	-1.24463
845.969	-0.29894
846.151	1.91531
846.333	4.32583
846.515	7.16061
846.697	11.68993
846.879	10.94132
847.061	15.275
847.243	15.34278
847.425	17.00457
847.607	17.6237
847.789	17.98121
847.971	16.08961
848.153	19.15427
848.335	22.02215
848.517	23.32687
848.699	23.61838
848.881	31.82644
849.062	30.94645
849.244	29.54313
849.426	21.5619
849.608	21.3015
849.789	20.52033
849.971	19.54218
850.153	20.68132
850.335	19.21554
850.516	21.23815
850.698	20.81631
850.88	25.60297
851.061	26.44577
851.243	26.5412
851.425	23.51577
851.606	27.2019
851.788	30.29664
851.969	29.1245
852.151	23.25485
852.333	18.66212
852.514	20.12457
852.696	16.96746
852.877	18.88981
853.059	21.98384
853.24	18.20304
853.422	17.74742
853.603	14.45797
853.784	26.05788
853.966	24.1023
854.147	31.66454
854.329	23.02967
854.51	27.7257
854.691	14.39808
854.873	17.00598
855.054	18.07785
855.235	22.67453
855.416	25.21399
855.598	15.21009
855.779	11.81896
855.96	3.21758
856.141	10.77981
856.323	7.61914
856.504	14.30057
856.685	8.66119
856.866	12.47284
857.047	10.0943
857.228	8.88798
857.409	8.95443
857.591	9.01936
857.772	9.54181
857.953	6.11997
858.134	0.51336
858.315	-2.02899
858.496	1.45982
858.677	0.93835
858.858	-1.27896
859.039	-5.22407
859.22	-0.0073
859.401	5.11083
859.582	7.91425
859.762	9.83531
859.943	6.15162
860.124	7.55348
860.305	1.45878
860.486	2.30667
860.667	0.22069
860.848	2.79561
861.028	7.42413
861.209	11.04224
861.39	10.48827
861.571	9.60689
861.751	3.57618
861.932	-0.40077
862.113	-0.16922
862.293	1.29739
862.474	10.26167
862.655	7.55404
862.835	10.78201
863.016	7.78282
863.197	7.75021
863.377	9.44482
863.558	2.46963
863.738	-3.4302
863.919	-0.85747
864.099	5.27089
864.28	10.68174
864.46	1.71976
864.641	0.51315
864.821	2.17561
865.002	5.95686
865.182	2.63215
865.363	-0.82326
865.543	0.22003
865.723	8.95659
865.904	7.91443
866.084	5.50162
866.264	-4.83067
866.445	3.57766
866.625	-0.82161
866.805	5.0441
866.986	-1.47411
867.166	0.87206
867.346	3.77332
867.526	1.62154
867.707	5.27012
867.887	1.22812
868.067	2.2066
868.247	-1.8006
868.427	0.1222
868.607	-0.82383
868.788	-2.84493
868.968	-8.84142
869.148	-6.91748
869.328	-2.38639
869.508	0.1229
869.688	2.30633
869.868	3.57757
870.048	4.2945
870.228	6.57594
870.408	5.24024
870.588	4.55602
870.768	2.40519
870.948	3.51191
871.128	5.07622
871.307	8.36753
871.487	3.54519
871.667	5.95773
871.847	3.31888
872.027	4.84978
872.207	9.02196
872.387	9.34753
872.566	11.79151
872.746	8.00956
872.926	2.01165
873.106	2.92547
873.285	2.11153
873.465	7.81587
873.645	7.034
873.824	7.62126
874.004	3.05704
874.184	-4.93105
874.363	-9.10437
874.543	-4.05125
874.723	9.50833
874.902	9.21487
875.082	7.94403
875.261	3.0221
875.441	2.79421
875.62	-0.46585
875.8	-4.18032
875.979	-3.59368
876.159	0.21988
876.338	2.27327
876.518	-0.88956
876.697	0.15258
876.876	3.38004
877.056	8.10725
877.235	5.82676
877.415	-4.70242
877.594	-7.44058
877.773	-13.50305
877.953	-4.83175
878.132	-0.30085
878.311	0.08929
878.49	-1.6715
878.67	-9.23278
878.849	-2.19078
879.028	1.19923
879.207	10.12934
879.387	8.336
879.566	4.19648
879.745	2.27329
879.924	0.54555
880.103	2.79509
880.282	3.61078
880.461	10.91469
880.64	5.43881
880.819	6.61264
880.998	0.35189
881.178	5.37098
881.357	3.15369
881.536	-2.91073
881.715	-3.8232
881.893	-2.64895
882.072	5.20799
882.251	6.70786
882.43	8.04346
882.609	8.33748
882.788	2.63286
882.967	-1.53941
883.146	0.6122
883.325	3.38235
883.503	6.64194
883.682	3.12096
883.861	7.2614
884.04	5.79432
884.219	7.91339
884.397	3.4477
884.576	6.18487
884.755	4.68541
884.933	5.89097
885.112	5.72994
885.291	4.68652
885.469	4.19747
885.648	-2.74677
885.827	0.51434
886.005	-0.1049
886.184	1.72091
886.363	5.82836
886.541	11.23978
886.72	13.42107
886.898	7.6829
887.077	7.87674
887.255	7.74937
887.434	2.46808
887.612	-3.62658
887.791	-2.71407
887.969	3.44785
888.147	5.95821
888.326	1.81859
888.504	0.1552
888.682	-2.3226
888.861	0.15445
889.039	1.26249
889.218	4.94717
889.396	10.58517
889.574	10.94335
889.752	5.20588
889.931	-7.57081
890.109	-9.36305
890.287	-1.54072
890.465	7.55396
890.643	10.48675
890.822	8.26986
891	8.23656
891.178	9.08642
891.356	4.71926
891.534	3.22078
891.712	-0.33381
891.89	7.06634
892.068	5.59901
892.247	9.25035
892.425	8.56422
892.603	6.47776
892.781	1.84854
892.959	-10.20998
893.137	-6.75431
893.314	-8.18872
893.492	1.39371
893.67	5.3683
893.848	10.48533
894.026	8.95281
894.204	-0.00768
894.382	-2.51633
894.56	-1.47329
894.738	0.90476
894.915	2.20786
895.093	6.54228
895.271	7.84624
895.449	6.2818
895.626	3.7741
895.804	4.0023
895.982	6.31702
896.16	5.20829
896.337	4.52371
896.515	2.86102
896.693	-6.46136
896.87	-4.34237
897.048	-10.99228
897.225	-2.68128
897.403	-2.35559
897.581	3.54446
897.758	5.23963
897.936	5.59828
898.113	4.71839
898.291	8.4985
898.468	8.43302
898.646	8.30261
898.823	0.61094
899.001	-0.10587
899.178	1.52353
899.356	4.22919
899.533	8.72657
899.71	13.09623
899.888	12.50885
900.065	5.33743
900.242	2.14221
900.42	-0.43284
900.597	-0.65978
900.774	-3.9203
900.952	-0.43121
901.129	4.8495
901.306	5.11054
901.483	3.54511
901.661	-4.47545
901.838	-2.12803
902.015	1.5556
902.192	10.03344
902.369	8.33797
902.546	1.16641
902.723	-5.22406
902.901	-4.93068
903.078	-5.51706
903.255	-1.1487
903.432	0.80685
903.609	1.65415
903.786	5.27329
903.963	5.0443
904.14	7.52155
904.317	2.85943
904.494	2.86031
904.671	8.63174
904.848	10.06623
905.024	9.34919
905.201	-2.22666
905.378	0.0545
905.555	0.44556
905.732	8.43417
905.909	-2.90478
906.086	-2.90411
906.262	-5.67499
906.439	7.59027
906.616	8.50243
906.793	7.98036
906.969	4.88125
907.146	5.01188
907.323	0.15342
907.5	-7.37773
907.676	-12.85482
907.853	-6.95278
908.03	-0.56314
908.206	6.25121
908.383	9.28266
908.559	8.5658
908.736	2.73004
908.912	0.57873
909.089	-2.97334
909.266	0.77567
909.442	-3.13645
909.619	0.51351
909.795	-0.43223
909.972	6.31433
910.148	6.24927
910.324	5.66262
910.501	7.8825
910.677	9.80684
910.854	9.15483
911.03	0.74231
911.206	-6.4299
911.383	-10.79898
911.559	-9.33118
911.735	-5.19201
911.912	-2.06171
912.088	1.84877
912.264	4.78118
912.44	3.96576
912.617	6.47607
912.793	2.50075
912.969	4.45716
913.145	-2.64828
913.321	0.44834
913.498	-3.5612
913.674	0.96991
913.85	-7.50471
914.026	-3.59283
914.202	-10.70032
914.378	-7.37637
914.554	-6.1706
914.73	-5.64668
914.906	-6.23333
915.082	-9.49327
915.258	-0.75747
915.434	3.70844
915.61	3.74034
915.786	2.30519
915.962	5.76175
916.138	5.24004
916.314	-3.88811
916.49	-5.84551
916.665	-1.31271
916.841	5.27258
917.017	0.35104
917.193	-3.62664
917.369	-7.53736
917.545	-1.40849
917.72	0.58021
917.896	3.96946
918.072	-3.65903
918.247	0.02426
918.423	0.87185
918.599	5.8596
918.775	2.66533
918.95	-3.13415
919.126	-7.11074
919.301	-8.15388
919.477	-2.41951
919.653	7.19414
919.828	10.29057
920.004	5.92347
920.179	2.62809
920.355	-0.40308
920.53	4.29007
920.706	-2.35498
920.881	-0.59502
921.057	-1.18216
921.232	6.707
921.408	8.46792
921.583	9.67406
921.759	2.60033
921.934	-0.72505
922.109	-2.32223
922.285	-0.13862
922.46	1.85008
922.635	2.07844
922.811	1.26348
922.986	0.93727
923.161	-1.0841
923.336	-4.76588
923.512	-3.59309
923.687	-2.0282
923.862	-5.28853
924.037	-8.80812
924.212	-11.70983
924.388	-4.99601
924.563	-7.21239
924.738	-8.41903
924.913	-10.14665
925.088	-13.3417
925.263	-7.3422
925.438	-0.95368
925.613	6.02225
925.788	4.29403
925.963	3.28434
926.138	-4.50767
926.313	-2.51853
926.488	-4.96349
926.663	-1.24477
926.838	-2.97306
927.013	-5.25546
927.188	-2.9102
927.363	2.1096
927.538	-0.66147
927.713	0.90354
927.888	-1.21414
928.062	-0.6586
928.237	-2.74534
928.412	-5.64746
928.587	-4.80113
928.761	-0.95461
928.936	1.52338
929.111	1.00192
929.286	2.6651
929.46	1.29543
929.635	6.90292
929.81	1.75224
929.984	-1.50746
930.159	3.38225
930.334	3.90354
930.508	7.35861
930.683	4.1966
930.857	9.44588
931.032	7.32721
931.206	2.46988
931.381	-2.02944
931.556	1.75081
931.73	8.24026
931.904	9.77207
932.079	4.00424
932.253	-3.75676
932.428	-5.97314
932.602	-7.60515
932.777	0.21925
932.951	2.72887
933.125	9.80246
933.3	2.76097
933.474	1.52286
933.648	0.57843
933.823	-0.52971
933.997	-1.312
934.171	-5.58162
934.345	-6.23391
934.52	-7.01615
934.694	-1.44142
934.868	-1.0197
935.042	4.58694
935.217	0.77225
935.391	2.63244
935.565	-1.54016
935.739	-3.72348
935.913	-3.7558
936.087	0.09085
936.261	5.86008
936.435	8.59793
936.609	4.39269
936.783	9.867
936.957	11.13812
937.131	11.85524
937.305	2.01249
937.479	1.16522
937.653	1.32813
937.827	1.52397
938.001	0.38305
938.175	1.03487
938.349	2.17571
938.523	0.28514
938.697	-1.73544
938.87	-6.95122
939.044	-3.43099
939.218	-4.86463
939.392	2.3731
939.566	-0.88664
939.739	3.83848
939.913	6.2825
940.087	7.68427
940.261	8.98904
940.434	4.45785
940.608	3.21953
940.782	-4.14775
940.955	-7.66775
941.129	-6.55983
941.302	-4.83237
941.476	-1.3448
941.65	-3.00699
941.823	1.52398
941.997	0.6437
942.17	-0.10712
942.344	1.45728
942.517	3.64184
942.691	4.09949
942.864	0.25364
943.038	-1.47451
943.211	-1.41041
943.385	-6.03654
943.558	-7.40377
943.731	-6.84878
943.905	-2.02711
944.078	-5.84219
944.251	0.18822
944.425	2.95778
944.598	8.30308
944.771	4.35882
944.945	1.9805
945.118	0.70925
945.291	3.87145
945.464	0.93756
945.638	2.11099
945.811	-1.47522
945.984	-3.82281
946.157	-2.97512
946.33	-6.78899
946.503	-1.31169
946.677	2.95849
946.85	7.75064
947.023	-0.69414
947.196	-3.3013
947.369	-2.84484
947.542	7.81567
947.715	4.26173
947.888	2.98997
948.061	-0.85592
948.234	-3.69261
948.407	-0.2044
948.58	-2.06213
948.753	2.92586
948.926	2.2418
949.099	1.58957
949.271	-1.70273
949.444	-3.8219
949.617	-2.45299
949.79	-1.80085
949.963	0.70853
950.136	1.71913
950.308	5.69535
950.481	1.81661
950.654	1.97959
950.827	-2.25806
950.999	-6.07222
951.172	-3.4643
951.345	-2.77881
951.517	0.57868
951.69	0.25258
951.863	0.80633
952.035	5.33755
952.208	6.47911
952.381	4.13178
952.553	2.72991
952.726	1.39268
952.898	5.85896
953.071	3.70764
953.243	-0.36805
953.416	-5.84269
953.588	-6.59236
953.761	-3.16858
953.933	-1.83396
954.106	-3.00716
954.278	1.81564
954.45	4.81477
954.623	4.26035
954.795	-3.00686
954.967	-7.01703
955.14	-0.85575
955.312	0.93681
955.484	3.87124
955.657	0.96973
955.829	4.84791
956.001	3.18546
956.173	1.55549
956.346	2.27485
956.518	5.17619
956.69	2.66548
956.862	-4.9956
957.034	-0.85579
957.207	1.29683
957.379	1.06732
957.551	0.31648
957.723	-0.53211
957.895	-0.17339
958.067	-6.62704
958.239	-6.39832
958.411	-2.02992
958.583	-4.21326
958.755	-1.21396
958.927	-2.12669
959.099	4.78331
959.271	2.43627
959.443	1.94768
959.615	-2.68027
959.787	1.72
959.959	-0.62756
960.13	4.65272
960.302	-0.95397
960.474	0.8393
960.646	0.51321
960.818	5.04564
960.99	6.7737
961.161	0.93799
961.333	6.05398
961.505	5.72766
961.677	7.65223
961.848	-0.85538
962.02	-4.76834
962.192	-6.26838
962.363	-1.02099
962.535	-1.24856
962.707	4.97734
962.878	2.04482
963.05	6.83775
963.221	4.94747
963.393	1.49274
963.564	-1.60471
963.736	-4.83195
963.907	-7.6027
964.079	-10.27484
964.25	-6.037
964.422	3.18824
964.593	1.13402
964.765	0.51402
964.936	-4.76774
965.108	0.08935
965.279	1.19804
965.45	5.27332
965.622	4.09907
965.793	3.44707
965.964	4.81735
966.136	5.20897
966.307	-0.6914
966.478	-8.8433
966.65	-5.94171
966.821	0.77401
966.992	5.76166
967.163	0.67558
967.334	-6.66047
967.506	-6.2033
967.677	1.52295
967.848	-0.10625
968.019	1.29624
968.19	-4.14777
968.361	0.57935
968.532	2.63181
968.703	5.63082
968.874	6.44592
969.045	-1.63854
969.216	-1.73589
969.387	-0.30155
969.558	6.18493
969.729	5.79355
969.9	-0.00674
970.071	-9.23189
970.242	-8.71076
970.413	-3.85581
970.584	2.59946
970.755	-0.00781
970.926	-6.00574
971.097	-7.44005
971.267	-3.1693
971.438	5.01255
971.609	5.37103
971.78	5.37092
971.951	-1.76666
972.121	-0.46252
972.292	-3.69024
972.463	3.31749
972.633	4.62117
972.804	6.41375
972.975	3.31634
973.145	0.74112
973.316	2.3717
973.487	-1.40974
973.657	7.23056
973.828	3.35095
973.998	8.40393
974.169	0.83928
974.339	0.48096
974.51	2.7616
974.68	-5.58536
974.851	2.27227
975.021	-1.14947
975.192	6.41525
975.362	-2.7795
975.533	-7.89817
975.703	-2.94567
975.874	1.94522
976.044	9.1177
976.214	6.31628
976.385	5.63081
976.555	2.14217
976.725	-6.20127
976.896	-7.17896
977.066	-10.76394
977.236	-7.63602
977.406	-7.66879
977.577	-4.66916
977.747	-5.61393
977.917	1.26328
978.087	4.42444
978.257	12.41109
978.427	-0.72455
978.598	-3.16971
978.768	-9.33132
978.938	-6.39723
979.108	-1.37808
979.278	4.62067
979.448	2.85943
979.618	2.07813
979.788	-1.60618
979.958	-4.86586
980.128	-4.70243
980.298	-6.85445
980.468	-3.49603
980.638	-5.61496
980.808	-4.47319
980.978	1.68756
981.148	-1.89869
981.317	-2.74693
981.487	-3.62719
981.657	-5.09377
981.827	-4.89795
981.997	-5.19148
982.167	-0.62772
982.336	-1.96418
982.506	-3.17035
982.676	3.08488
982.846	3.96561
983.015	4.29152
983.185	-4.30997
983.355	-2.32192
983.524	-3.98457
983.694	-4.05052
983.864	-4.34384
984.033	-2.90944
984.203	-0.10603
984.372	-3.75752
984.542	-6.30009
984.712	-4.05099
984.881	-1.73608
985.051	-2.61552
985.22	-5.5492
985.39	-3.78892
985.559	-2.81077
985.728	1.03653
985.898	4.19746
986.067	4.42555
986.237	1.0998
986.406	-1.11579
986.576	7.19631
986.745	5.82687
986.914	3.44757
987.084	4.94807
987.253	9.83835
987.422	9.05542
987.591	1.06749
987.761	-3.17048
987.93	-1.21439
988.099	3.67577
988.268	-0.2357
988.438	0.54682
988.607	-3.30023
988.776	-1.76799
988.945	-1.31175
989.114	-4.05035
989.283	1.45855
989.452	1.55624
989.621	1.10001
989.791	-1.70364
989.96	-5.45243
990.129	1.42661
990.298	1.71993
990.467	4.2954
990.636	1.03522
990.805	-4.37601
990.974	1.68908
991.142	-1.60271
991.311	-1.92618
991.48	-7.46981
991.649	-1.47309
991.818	2.85951
991.987	0.77318
992.156	1.65484
992.325	3.87173
992.493	5.95562
992.662	1.13018
992.831	-3.36611
993	0.54801
993.168	-4.83319
993.337	-2.32537
993.506	-7.11713
993.675	-4.93141
993.843	1.39344
994.012	1.75193
994.181	6.25138
994.349	0.41541
994.518	2.76324
994.686	4.61997
994.855	4.97882
995.024	-4.05179
995.192	-7.27771
995.361	-8.87497
995.529	-9.68989
995.698	-12.59208
995.866	-11.67926
996.035	-4.14895
996.203	4.22997
996.371	8.56474
996.54	6.6092
996.708	0.02423
996.877	-5.32208
997.045	-8.45033
997.213	-5.35367
997.382	-3.98376
997.55	2.40344
997.718	0.34997
997.887	8.04261
998.055	3.31635
998.223	4.29404
998.391	-3.39877
998.56	3.15304
998.728	2.92494
998.896	3.77275
999.064	1.26279
999.232	7.51956
999.401	3.63962
999.569	2.79257
999.737	-3.85537
999.905	4.45706
1000.073	2.20807
1000.241	1.36035
1000.409	-6.65753
1000.577	-4.24564
1000.745	0.74244
1000.913	3.21955
1001.081	2.76316
1001.249	-3.98472
1001.417	0.35096
1001.585	-0.00764
1001.753	2.95848
1001.921	-3.78993
1002.089	-3.75727
1002.256	-4.40938
1002.424	-3.13734
1002.592	-0.59467
1002.76	1.62164
1002.928	6.08844
1003.096	6.28357
1003.263	-0.69067
1003.431	1.23256
1003.599	-1.40744
1003.767	3.15501
1003.934	3.28512
1004.102	2.53559
1004.27	6.28334
1004.437	4.5549
1004.605	1.62234
1004.773	1.59042
1004.94	2.56903
1005.108	5.89244
1005.275	0.67703
1005.443	-4.21347
1005.61	-12.3307
1005.778	-7.99494
1005.945	-5.48454
1006.113	-1.50729
1006.28	-1.3445
1006.448	1.62251
1006.615	3.18771
1006.783	-1.24578
1006.95	-7.47284
1007.118	-2.81176
1007.285	0.25235
1007.452	-2.35591
1007.62	-0.13994
1007.787	0.83792
1007.954	5.40199
1008.122	0.08963
1008.289	-1.05062
1008.456	-1.01802
1008.623	-3.10493
1008.791	-0.79191
1008.958	-4.73682
1009.125	-3.72498
1009.292	-4.31137
1009.459	0.31823
1009.627	-0.07386
1009.794	-6.06995
1009.961	-13.27442
1010.128	-10.43855
1010.295	-3.6912
1010.462	3.35023
1010.629	3.21994
1010.796	-4.01772
1010.963	-3.49618
1011.13	-5.38712
1011.297	-2.51838
1011.464	-3.56156
1011.631	-5.74565
1011.798	-4.05048
1011.965	-5.25673
1012.132	3.1857
1012.299	3.38111
1012.466	10.55129
1012.633	7.52046
1012.799	8.04216
1012.966	0.96948
1013.133	-8.22332
1013.3	-5.74566
1013.467	-7.50594
1013.633	-2.55068
1013.8	-4.70213
1013.967	4.16215
1014.134	3.96668
1014.3	3.3472
1014.467	0.64409
1014.634	4.03387
1014.8	-5.77882
1014.967	-11.28768
1015.134	-6.07253
1015.3	11.20435
1015.467	15.9969
1015.633	17.95249
1015.8	10.16241
1015.966	5.07661
1016.133	-0.92114
1016.3	9.67521
1016.466	11.95705
1016.632	10.13185
1016.799	-2.19206
1016.965	-2.94178
1017.132	-2.77859
1017.298	-0.72518
1017.465	-0.69213
1017.631	-3.43107
1017.797	-1.05159
1017.964	1.81611
1018.13	3.51199
1018.296	4.35923
1018.463	-0.33488
1018.629	6.18584
1018.795	1.06843
1018.961	0.45008
1019.128	-4.83191
1019.294	-3.07156
1019.46	2.66539
1019.626	-2.68175
1019.792	2.56476
1019.959	4.97803
1020.125	9.18453
1020.291	7.39443
1020.457	1.23208
1020.623	4.03515
1020.789	0.83972
1020.955	0.93774
1021.121	2.9247
1021.287	3.11972
1021.453	2.14113
1021.619	1.26325
1021.785	-6.75637
1021.951	-5.84365
1022.117	-6.75768
1022.283	-3.10553
1022.449	-1.01866
1022.615	-5.77632
1022.781	-1.99559
1022.946	-8.64582
1023.112	-12.49107
1023.278	-14.54485
1023.444	-8.90529
1023.61	-2.29063
1023.775	-4.14878
1023.941	-7.76863
1024.107	-7.8662
1024.273	-3.26874
1024.438	1.88288
1024.604	9.75857
1024.77	5.52154
1024.935	1.64179
1025.101	-1.96326
1025.267	-0.17182
1025.432	3.51311
1025.598	-3.20182
1025.763	-1.83271
1025.929	-3.36537
1026.095	-0.98603
1026.26	-0.95334
1026.426	-3.2022
1026.591	-3.5608
1026.757	-9.49424
1026.922	-6.78892
1027.087	-9.56075
1027.253	-9.00687
1027.418	-6.79055
1027.584	-5.617
1027.749	1.6204
1027.914	4.68703
1028.08	7.52392
1028.245	2.17852
1028.41	-1.01767
1028.576	0.54697
1028.741	10.22584
1028.906	8.92144
1029.072	9.34482
1029.237	3.41419
1029.402	-0.36566
1029.567	-2.2559
1029.732	-6.13621
1029.898	-1.63906
1030.063	-1.24795
1030.228	-1.44134
1030.393	-7.4072
1030.558	-9.2004
1030.723	-5.3223
1030.888	-5.38844
1031.053	-3.66028
1031.218	-9.49523
1031.383	-3.30053
1031.548	-1.5723
1031.713	4.81666
1031.878	4.62136
1032.043	2.63218
1032.208	6.83923
1032.373	7.97936
1032.538	3.73952
1032.703	-2.97673
1032.868	1.10145
1033.033	-4.73249
1033.198	-3.55958
1033.362	-12.88603
1033.527	-3.52916
1033.692	-1.47559
1033.857	2.95785
1034.021	4.09855
1034.186	5.63072
1034.351	2.86026
1034.516	5.66312
1034.68	2.37074
1034.845	-0.46487
1035.01	1.55756
1035.174	0.3513
1035.339	-0.43159
1035.504	-5.45249
1035.668	-2.25695
1035.833	2.92643
1035.997	2.60053
1036.162	5.86106
1036.326	-1.27961
1036.491	-5.81061
1036.655	-8.51836
1036.82	0.87125
1036.984	2.79441
1037.149	-2.35526
1037.313	-3.2032
1037.478	-2.1597
1037.642	0.70874
1037.807	-4.14742
1037.971	-5.35325
1038.135	-5.35329
1038.3	-2.97374
1038.464	4.0018
1038.628	2.95903
1038.792	5.79561
1038.957	1.42725
1039.121	2.60035
1039.285	-4.18098
1039.449	-7.8653
1039.614	-10.37595
1039.778	-11.38388
1039.942	-10.17661
1040.106	-12.78427
1040.27	-6.36504
1040.434	-6.10541
1040.599	4.26244
1040.763	5.60017
1040.927	8.30669
1041.091	2.30738
1041.255	1.36081
1041.419	0.41535
1041.583	-4.08295
1041.747	-1.1829
1041.911	0.93561
1042.075	4.29278
1042.239	-0.75827
1042.403	-6.2996
1042.567	-3.98493
1042.731	-3.62658
1042.894	-3.33218
1043.058	-1.31065
1043.222	-5.5793
1043.386	-8.02584
1043.55	-13.50223
1043.714	-8.97288
1043.877	-1.83324
1044.041	1.71929
1044.205	4.13207
1044.369	7.84922
1044.532	7.22992
1044.696	5.63234
1044.86	-1.47396
1045.023	-4.24423
1045.187	-5.12449
1045.351	-1.27838
1045.514	2.4046
1045.678	4.03456
1045.841	3.70804
