Data from H2O_Subt9__5__00045.txt Node

Date: Tue Nov 04 10:20:32 EST 2025
User: brett
Spectrometer: USB4F03499
Trigger mode: 4
Integration Time (sec): 3.000000E-2
Scans to average: 15
Electric dark correction enabled: true
Nonlinearity correction enabled: true
Boxcar width: 1
XAxis mode: Wavelengths
Number of Pixels in Spectrum: 3648
>>>>>Begin Spectral Data<<<<<
345.386	-6.88315
345.605	-6.88315
345.824	-7.24328
346.044	-8.61323
346.263	-9.36117
346.482	-8.64079
346.701	-2.54182
346.92	4.66178
347.139	3.94461
347.358	-2.21448
347.577	-2.70175
347.796	1.40566
348.015	4.89099
348.234	3.71612
348.453	-2.57548
348.672	-0.13064
348.891	-8.08445
349.11	4.36694
349.329	6.1263
349.548	13.42745
349.767	15.87501
349.986	15.64709
350.205	18.74582
350.424	15.1272
350.643	18.8763
350.862	13.52942
351.08	11.9932
351.299	12.02374
351.518	17.04266
351.737	19.4202
351.956	15.73857
352.174	23.78454
352.393	21.93047
352.612	26.32687
352.831	25.38797
353.049	26.49567
353.268	23.79275
353.487	23.53197
353.705	26.39903
353.924	32.1314
354.143	30.20604
354.361	34.95909
354.58	32.42217
354.798	32.68044
355.017	29.91458
355.236	30.40232
355.454	28.05651
355.673	27.82515
355.891	30.55924
356.11	31.24461
356.328	37.13992
356.547	36.55359
356.765	42.22025
356.984	35.90474
357.202	34.63551
357.42	33.03863
357.639	34.59733
357.857	40.22521
358.076	40.84468
358.294	49.77326
358.512	51.79493
358.731	56.155
358.949	54.54792
359.167	52.71762
359.386	54.02295
359.604	45.55689
359.822	51.81632
360.04	51.68186
360.259	57.93374
360.477	56.82426
360.695	55.32365
360.913	60.08401
361.131	52.66164
361.35	52.07208
361.568	48.45654
361.786	49.42666
362.004	46.11832
362.222	46.47428
362.44	47.68863
362.658	52.49799
362.876	50.34939
363.094	56.56567
363.312	57.22468
363.53	57.8412
363.749	54.48443
363.967	52.6599
364.184	50.2825
364.402	49.54055
364.62	50.32272
364.838	49.48071
365.056	42.50435
365.274	34.81707
365.492	32.0827
365.71	32.08339
365.928	33.03092
366.146	32.37846
366.364	30.30032
366.581	28.37788
366.799	28.87166
367.017	30.43791
367.235	27.27815
367.453	28.05439
367.67	23.19869
367.888	25.83597
368.106	18.212
368.323	18.24219
368.541	9.77169
368.759	13.78342
368.977	20.29892
369.194	28.02382
369.412	26.19979
369.629	21.43967
369.847	22.51069
370.065	23.03241
370.282	23.65435
370.5	29.54852
370.717	28.82937
370.935	32.34607
371.152	29.80584
371.37	32.57406
371.588	31.14213
371.805	30.10391
372.022	32.21691
372.24	32.44624
372.457	27.42701
372.675	33.69275
372.892	31.47482
373.11	34.08066
373.327	26.65165
373.544	34.56628
373.762	35.02204
373.979	35.83111
374.196	29.48193
374.414	31.37234
374.631	34.76251
374.848	35.41234
375.066	41.46874
375.283	38.08047
375.5	39.28587
375.717	37.791
375.935	36.81262
376.152	40.25789
376.369	34.32931
376.586	35.98604
376.803	36.18882
377.02	42.2131
377.238	43.68515
377.455	44.26412
377.672	38.82766
377.889	35.73231
378.106	32.90988
378.323	40.62845
378.54	41.63485
378.757	40.42475
378.974	36.77456
379.191	40.29608
379.408	41.79455
379.625	40.51762
379.842	37.65554
380.059	37.9838
380.276	40.46695
380.493	41.7276
380.71	43.28585
380.927	40.99858
381.143	46.37727
381.36	44.15994
381.577	51.52696
381.794	50.89757
382.011	53.33661
382.228	50.62251
382.444	48.05751
382.661	50.6393
382.878	49.2171
383.095	51.4926
383.311	50.87394
383.528	52.11304
383.745	50.0348
383.962	48.96104
384.178	42.44684
384.395	42.5756
384.612	38.37165
384.828	39.05418
385.045	38.56194
385.261	41.59212
385.478	45.49914
385.695	41.72303
385.911	36.47965
386.128	38.56628
386.344	41.82681
386.561	45.40839
386.777	43.74501
386.994	51.09801
387.21	54.97352
387.427	55.46531
387.643	50.06714
387.86	48.63567
388.076	48.4108
388.292	44.65586
388.509	46.02357
388.725	37.97196
388.942	40.74745
389.158	32.24629
389.374	32.01859
389.591	30.71657
389.807	36.1869
390.023	48.01064
390.239	51.46393
390.456	45.60093
390.672	36.68152
390.888	32.70216
391.104	43.02232
391.321	47.57941
391.537	50.67706
391.753	46.24619
391.969	41.25913
392.185	40.57699
392.401	45.53469
392.618	51.72616
392.834	47.49109
393.05	46.6057
393.266	45.003
393.482	47.08439
393.698	42.62525
393.914	45.3627
394.13	50.51351
394.346	48.95221
394.562	48.50286
394.778	48.72252
394.994	49.21399
395.21	45.00738
395.426	41.33584
395.642	40.88254
395.858	44.33501
396.073	47.13093
396.289	50.41688
396.505	47.71452
396.721	46.38532
396.937	40.62188
397.153	38.40846
397.369	34.86136
397.584	40.00436
397.8	41.6278
398.016	38.00734
398.232	39.66361
398.447	43.05992
398.663	41.30391
398.879	36.84775
399.094	33.61825
399.31	41.00632
399.526	36.67541
399.741	35.5064
399.957	35.83694
400.173	38.37803
400.388	40.39738
400.604	36.9399
400.82	36.28737
401.035	38.17525
401.251	41.49948
401.466	47.20484
401.682	43.16429
401.897	43.6179
402.113	43.77517
402.328	46.64373
402.544	38.43939
402.759	33.97801
402.974	30.16411
403.19	36.42217
403.405	37.3329
403.621	34.69122
403.836	32.89805
404.051	34.56505
404.267	33.23656
404.482	30.79031
404.697	33.55134
404.913	34.82152
405.128	34.13893
405.343	30.88866
405.559	37.00996
405.774	38.60699
405.989	40.8794
406.204	36.97396
406.42	43.68011
406.635	48.46792
406.85	49.01729
407.065	40.68152
407.28	38.2098
407.495	44.04227
407.71	48.33906
407.926	44.59578
408.141	40.12957
408.356	41.30239
408.571	41.10534
408.786	41.63008
409.001	42.90409
409.216	44.98963
409.431	42.61055
409.646	43.19798
409.861	43.09141
410.076	51.46462
410.291	48.65995
410.506	49.71168
410.721	44.75912
410.936	47.20553
411.15	43.12985
411.365	43.4495
411.58	43.28565
411.795	50.67938
412.01	54.78548
412.225	58.89217
412.439	56.02595
412.654	53.0977
412.869	50.09815
413.084	48.47107
413.299	48.99497
413.513	47.52738
413.728	48.07324
413.943	43.70573
414.157	43.79786
414.372	35.30414
414.587	38.03764
414.801	33.48147
415.016	38.98713
415.231	39.77562
415.445	43.38849
415.66	42.47657
415.874	43.48053
416.089	42.50835
416.304	42.93099
416.518	49.34919
416.733	49.70529
416.947	51.39557
417.162	40.80701
417.376	39.1429
417.59	37.87601
417.805	35.79762
418.019	37.29752
418.234	44.30054
418.448	47.42434
418.663	53.91385
418.877	53.06619
419.091	49.97083
419.306	51.55434
419.52	46.18121
419.734	55.52208
419.949	44.39152
420.163	47.87726
420.377	41.89017
420.591	42.83075
420.806	38.30161
421.02	41.94888
421.234	44.03211
421.448	39.08524
421.663	34.76066
421.877	35.38497
422.091	40.10543
422.305	39.8081
422.519	36.32238
422.733	37.8851
422.947	36.51886
423.161	32.90227
423.376	38.75837
423.59	45.33497
423.804	47.80845
424.018	37.55229
424.232	35.26866
424.446	40.96734
424.66	46.96893
424.874	46.42392
425.088	41.59566
425.302	37.42351
425.515	37.86967
425.729	45.40266
425.943	45.95562
426.157	42.08006
426.371	37.74429
426.585	37.28316
426.799	40.58094
427.013	41.92033
427.226	46.02775
427.44	48.88884
427.654	39.96477
427.868	36.12156
428.081	31.33468
428.295	43.7429
428.509	44.5575
428.723	43.21962
428.936	37.72029
429.15	34.03648
429.364	31.27491
429.577	32.47802
429.791	34.01091
430.005	38.66613
430.218	35.12017
430.432	38.2465
430.645	35.02023
430.859	37.91522
431.073	32.15275
431.286	38.70531
431.5	38.41149
431.713	43.45968
431.927	38.47632
432.14	40.39724
432.354	42.35238
432.567	40.59229
432.781	33.55705
432.994	32.57389
433.207	38.50245
433.421	45.66677
433.634	45.01719
433.848	40.22629
434.061	32.54077
434.274	31.79473
434.488	33.22382
434.701	37.94639
434.914	36.08987
435.127	35.93024
435.341	36.38641
435.554	39.11879
435.767	39.18826
435.98	38.43899
436.194	44.98791
436.407	48.82988
436.62	52.83939
436.833	52.83637
437.046	57.32964
437.259	55.20179
437.473	51.78937
437.686	48.1375
437.899	49.8344
438.112	52.59737
438.325	45.56502
438.538	50.54818
438.751	49.84021
438.964	60.35863
439.177	54.23448
439.39	57.4761
439.603	57.28368
439.816	56.96121
440.029	52.98576
440.242	50.37235
440.455	56.39749
440.668	56.309
440.881	61.22999
441.094	60.96666
441.306	66.8892
441.519	64.34924
441.732	66.29962
441.945	62.16077
442.158	61.99363
442.37	62.94609
442.583	68.13729
442.796	66.50745
443.009	56.08554
443.222	47.97153
443.434	50.58075
443.647	55.78337
443.86	59.52393
444.072	55.29502
444.285	59.81333
444.498	59.03547
444.71	61.96538
444.923	55.49688
445.136	48.75404
445.348	49.86557
445.561	55.6025
445.773	55.89955
445.986	55.9939
446.198	53.48924
446.411	59.12226
446.623	56.38374
446.836	55.31127
447.048	50.42119
447.261	46.64137
447.473	43.63144
447.686	43.86122
447.898	43.9611
448.11	50.66901
448.323	50.31307
448.535	46.89238
448.748	37.295
448.96	32.44113
449.172	33.77937
449.385	36.83912
449.597	39.80436
449.809	42.4726
450.021	41.07237
450.234	43.99839
450.446	39.76531
450.658	45.79772
450.87	52.65757
451.083	59.94338
451.295	57.68463
451.507	54.11719
451.719	59.81657
451.931	60.7561
452.143	66.42242
452.356	63.52859
452.568	68.27957
452.78	65.90078
452.992	67.88068
453.204	64.07541
453.416	59.44903
453.628	61.83316
453.84	69.25009
454.052	77.68419
454.264	73.28527
454.476	70.69132
454.688	71.43683
454.9	74.92351
455.112	72.21263
455.324	73.90993
455.536	75.14686
455.747	78.13604
455.959	79.42193
456.171	77.01516
456.383	74.21933
456.595	71.65609
456.807	72.56913
457.018	73.91048
457.23	70.09863
457.442	71.0311
457.654	71.57806
457.865	70.82288
458.077	66.66499
458.289	66.24912
458.501	70.40281
458.712	78.93554
458.924	79.00371
459.136	71.02534
459.347	59.27118
459.559	62.42752
459.77	66.78871
459.982	70.97849
460.194	61.08224
460.405	59.58811
460.617	59.36965
460.828	65.00552
461.04	60.11424
461.251	57.25122
461.463	52.65762
461.674	51.64747
461.886	46.43368
462.097	45.68589
462.309	51.94804
462.52	59.41272
462.731	63.51468
462.943	58.14439
463.154	50.28673
463.366	46.19297
463.577	41.23523
463.788	48.05466
464	45.73421
464.211	47.89006
464.422	49.02451
464.634	50.94973
464.845	53.45169
465.056	50.16196
465.267	52.27958
465.478	54.60034
465.69	54.98303
465.901	51.27064
466.112	51.16837
466.323	48.60163
466.534	56.20651
466.745	55.58566
466.957	59.42208
467.168	49.63455
467.379	51.72473
467.59	47.72517
467.801	53.02651
468.012	47.77488
468.223	45.00961
468.434	42.01111
468.645	44.83826
468.856	49.03677
469.067	51.48249
469.278	52.01268
469.489	49.73255
469.7	46.28345
469.911	47.48527
470.122	49.83628
470.333	60.49321
470.543	52.67904
470.754	58.43548
470.965	50.28644
471.176	60.79736
471.387	60.3712
471.598	64.96301
471.808	66.21776
472.019	66.18048
472.23	64.15899
472.441	67.56181
472.651	67.53834
472.862	68.21854
473.073	60.83523
473.283	57.77121
473.494	53.96681
473.705	54.45134
473.915	54.05017
474.126	52.74387
474.337	54.63428
474.547	53.95951
474.758	65.22109
474.968	64.14225
475.179	64.78682
475.389	67.08232
475.6	62.94422
475.81	67.2868
476.021	66.59415
476.231	77.46718
476.442	70.82524
476.652	64.63752
476.863	58.2343
477.073	62.55729
477.284	63.56593
477.494	66.42432
477.704	66.03578
477.915	66.45311
478.125	67.37177
478.335	66.35769
478.546	64.05451
478.756	59.51567
478.966	63.94965
479.177	68.07746
479.387	74.27052
479.597	75.70369
479.807	76.32738
480.018	74.59514
480.228	75.27611
480.438	75.27028
480.648	78.18746
480.858	79.31237
481.068	77.3147
481.279	77.97377
481.489	82.57497
481.699	81.05421
481.909	86.12643
482.119	86.53404
482.329	99.43352
482.539	102.84689
482.749	107.78128
482.959	114.64689
483.169	124.48177
483.379	134.35458
483.589	139.12454
483.799	147.38401
484.009	155.61148
484.219	162.9185
484.429	169.15064
484.639	173.11197
484.849	177.77633
485.059	181.37776
485.268	180.89257
485.478	180.36111
485.688	181.97677
485.898	190.61786
486.108	200.96985
486.317	212.89582
486.527	229.52553
486.737	246.94583
486.947	253.53325
487.156	261.0129
487.366	259.53798
487.576	270.94532
487.785	274.5366
487.995	287.52405
488.205	288.30715
488.414	288.94315
488.624	291.47173
488.834	289.54332
489.043	291.68274
489.253	293.05908
489.462	307.60408
489.672	311.86236
489.882	308.59152
490.091	302.29032
490.301	300.62881
490.51	304.74487
490.72	302.467
490.929	300.24647
491.138	295.41713
491.348	296.47212
491.557	289.31756
491.767	282.66558
491.976	271.05668
492.185	261.24634
492.395	265.24259
492.604	265.79251
492.813	265.75145
493.023	249.18114
493.232	239.54435
493.441	232.32608
493.651	229.70716
493.86	222.6511
494.069	228.67243
494.278	227.35407
494.488	225.20092
494.697	210.92268
494.906	202.21007
495.115	192.66773
495.324	194.82648
495.533	189.81247
495.743	188.43518
495.952	176.91945
496.161	171.66419
496.37	163.42745
496.579	160.1871
496.788	151.06246
496.997	146.6322
497.206	136.58844
497.415	137.21987
497.624	134.64094
497.833	123.56255
498.042	113.35388
498.251	97.7048
498.46	104.40486
498.669	106.42188
498.878	106.63158
499.087	102.28972
499.296	95.04681
499.504	95.464
499.713	93.14454
499.922	98.14967
500.131	94.88309
500.34	87.29829
500.549	78.45872
500.757	83.45187
500.966	88.88994
501.175	90.11721
501.384	91.79313
501.592	101.25387
501.801	106.35707
502.01	103.60036
502.218	100.3268
502.427	99.32677
502.636	102.65293
502.844	98.38913
503.053	98.39452
503.262	98.29047
503.47	97.15096
503.679	97.25916
503.887	90.62439
504.096	88.52014
504.304	89.12747
504.513	91.46704
504.721	91.60794
504.93	91.31243
505.138	92.02245
505.347	95.9075
505.555	87.64396
505.764	84.23867
505.972	84.81921
506.18	87.36283
506.389	89.20174
506.597	89.56491
506.806	95.43884
507.014	105.70424
507.222	102.32563
507.431	98.91286
507.639	88.5671
507.847	92.22518
508.055	98.47878
508.264	102.18123
508.472	103.22038
508.68	104.09896
508.888	99.83851
509.096	100.5516
509.305	94.37221
509.513	98.67459
509.721	92.81874
509.929	93.1786
510.137	89.81984
510.345	90.71876
510.553	94.71138
510.762	97.31613
510.97	103.35619
511.178	105.20569
511.386	105.97743
511.594	100.76758
511.802	94.2554
512.01	93.52178
512.218	98.242
512.426	98.95393
512.634	101.09184
512.842	99.01205
513.049	99.03373
513.257	105.38123
513.465	104.33274
513.673	107.28857
513.881	100.82615
514.089	96.77017
514.297	97.48065
514.504	100.79718
514.712	96.54739
514.92	96.54107
515.128	87.05495
515.336	94.2586
515.543	92.05185
515.751	100.27673
515.959	100.18875
516.166	106.63878
516.374	104.78816
516.582	106.71762
516.789	108.40193
516.997	112.90086
517.205	114.24685
517.412	114.88085
517.62	112.26609
517.827	109.78642
518.035	109.26909
518.243	115.03666
518.45	123.77625
518.658	126.23973
518.865	136.29346
519.073	143.4734
519.28	154.3562
519.488	155.27317
519.695	167.37236
519.902	169.30906
520.11	182.4934
520.317	188.82237
520.525	204.28714
520.732	216.11015
520.939	230.83414
521.147	242.25591
521.354	243.42549
521.561	243.6366
521.769	242.04059
521.976	247.21181
522.183	249.8037
522.391	248.99342
522.598	253.42224
522.805	254.06321
523.012	256.64725
523.219	257.98382
523.427	256.42333
523.634	259.15731
523.841	248.33428
524.048	247.99757
524.255	240.64567
524.462	238.07386
524.669	235.86177
524.877	236.67712
525.084	239.17933
525.291	233.49512
525.498	238.94959
525.705	236.1552
525.912	228.09697
526.119	216.42801
526.326	207.71497
526.533	215.32799
526.74	214.31422
526.947	214.69777
527.153	210.73165
527.36	201.1116
527.567	204.88281
527.774	192.97879
527.981	194.37744
528.188	181.49497
528.395	178.10608
528.602	162.28242
528.808	159.66037
529.015	155.46454
529.222	147.83612
529.429	135.6034
529.635	122.16866
529.842	122.00321
530.049	112.2212
530.256	108.66809
530.462	100.71661
530.669	96.22674
530.876	94.49739
531.082	93.0268
531.289	95.0909
531.495	97.90286
531.702	97.96835
531.909	92.30508
532.115	87.82532
532.322	84.51375
532.528	84.51271
532.735	78.48155
532.941	76.20926
533.148	82.98
533.354	88.39795
533.561	90.3529
533.767	86.28394
533.974	84.60882
534.18	81.21629
534.387	80.21881
534.593	75.06405
534.799	78.02768
535.006	85.0095
535.212	89.79932
535.418	97.13163
535.625	87.41196
535.831	88.485
536.037	79.81732
536.244	81.75674
536.45	80.62058
536.656	85.92282
536.862	89.28896
537.068	85.9028
537.275	83.98216
537.481	82.70146
537.687	83.61951
537.893	81.02449
538.099	80.83382
538.305	88.37394
538.512	94.88039
538.718	94.73949
538.924	93.50047
539.13	90.21918
539.336	91.10785
539.542	81.93612
539.748	82.48796
539.954	82.28122
540.16	89.44027
540.366	86.23742
540.572	85.73708
540.778	86.448
540.984	91.05867
541.19	95.64045
541.396	86.72798
541.602	82.89995
541.807	78.70599
542.013	89.47501
542.219	89.89943
542.425	89.17573
542.631	85.37348
542.837	86.60418
543.042	89.2843
543.248	89.70672
543.454	89.29179
543.66	89.38035
543.865	88.90107
544.071	95.05359
544.277	96.82065
544.483	100.87263
544.688	95.44196
544.894	97.67697
545.1	91.82964
545.305	90.25961
545.511	82.48141
545.716	81.53681
545.922	81.50775
546.128	81.71184
546.333	79.43871
546.539	82.20803
546.744	78.8167
546.95	81.05619
547.155	79.10209
547.361	78.5384
547.566	82.34651
547.772	74.43836
547.977	75.43126
548.182	72.33527
548.388	81.84
548.593	82.2564
548.799	83.79532
549.004	79.66289
549.209	77.4185
549.415	76.10871
549.62	79.01711
549.825	81.68253
550.031	84.81601
550.236	83.31128
550.441	83.81598
550.646	80.58972
550.852	76.13667
551.057	76.78105
551.262	71.86084
551.467	73.29024
551.672	62.02088
551.878	63.49696
552.083	63.88716
552.288	65.80878
552.493	64.07528
552.698	61.24441
552.903	68.6731
553.108	63.72141
553.313	68.35221
553.518	66.10977
553.723	74.81452
553.928	76.42938
554.133	71.79595
554.338	69.28807
554.543	67.62047
554.748	71.39407
554.953	80.67775
555.158	80.62516
555.363	85.23886
555.568	75.00753
555.773	69.66456
555.978	66.22082
556.182	68.83487
556.387	76.11618
556.592	74.9513
556.797	73.63338
557.002	70.9939
557.206	80.3987
557.411	84.05837
557.616	86.57779
557.821	82.35021
558.025	77.7134
558.23	78.69177
558.435	76.82479
558.64	85.41424
558.844	80.67705
559.049	84.03645
559.253	85.78748
559.458	91.64323
559.663	93.06216
559.867	96.53582
560.072	99.91226
560.276	103.42133
560.481	103.45188
560.685	116.68504
560.89	128.79078
561.094	139.05805
561.299	138.18296
561.503	143.67022
561.708	146.25462
561.912	153.25261
562.117	154.05878
562.321	160.76817
562.525	169.59372
562.73	173.32316
562.934	176.35956
563.139	170.96927
563.343	174.94061
563.547	176.96467
563.752	182.3388
563.956	183.75394
564.16	182.21686
564.364	181.84044
564.569	180.76188
564.773	184.41486
564.977	182.65911
565.181	188.25604
565.385	188.81462
565.59	191.11552
565.794	188.16273
565.998	173.97342
566.202	169.11215
566.406	164.80175
566.61	170.94449
566.814	167.16184
567.018	170.82714
567.222	170.27719
567.426	171.37137
567.63	166.62215
567.834	164.92736
568.038	167.34942
568.242	171.35945
568.446	169.46067
568.65	161.97166
568.854	149.89824
569.058	148.19097
569.262	147.61951
569.466	144.467
569.67	135.02912
569.874	132.75545
570.078	129.36884
570.281	130.51241
570.485	123.81425
570.689	120.84946
570.893	122.61249
571.097	119.6331
571.3	121.80973
571.504	112.76324
571.708	109.16407
571.912	102.01546
572.115	100.36891
572.319	104.13863
572.523	100.0396
572.726	100.10511
572.93	88.47521
573.133	82.15946
573.337	79.42783
573.541	85.98472
573.744	89.69874
573.948	90.28867
574.151	83.64705
574.355	82.10893
574.558	81.69397
574.762	84.25938
574.965	88.54069
575.169	91.97
575.372	90.94018
575.576	93.79007
575.779	84.78461
575.983	87.31727
576.186	74.59593
576.389	78.02157
576.593	76.22462
576.796	88.12467
577	93.97514
577.203	95.47951
577.406	89.95802
577.609	83.74439
577.813	90.96578
578.016	91.19718
578.219	90.12934
578.423	82.09443
578.626	80.23804
578.829	80.91661
579.032	79.35553
579.235	84.8425
579.438	90.05062
579.642	80.55645
579.845	77.5025
580.048	71.69822
580.251	86.36068
580.454	82.56383
580.657	87.55947
580.86	81.23847
581.063	88.72424
581.266	84.42687
581.469	85.60418
581.672	86.32041
581.875	83.60349
582.078	85.75744
582.281	86.69454
582.484	92.12258
582.687	91.67133
582.89	89.71771
583.093	93.67756
583.296	98.65521
583.499	95.37643
583.702	90.59416
583.904	96.49024
584.107	103.41184
584.31	104.7311
584.513	100.57651
584.716	98.78435
584.918	105.62364
585.121	95.71154
585.324	98.53885
585.527	91.07955
585.729	99.98374
585.932	92.02961
586.135	95.67742
586.337	97.9433
586.54	100.30231
586.743	101.53023
586.945	96.44011
587.148	99.9882
587.35	96.61134
587.553	101.47668
587.755	98.82438
587.958	99.32189
588.161	99.14372
588.363	103.62129
588.566	108.64061
588.768	104.55158
588.971	99.6409
589.173	92.36732
589.375	94.52789
589.578	93.87349
589.78	94.4205
589.983	85.54967
590.185	84.81105
590.387	86.67308
590.59	97.46804
590.792	102.63112
590.994	104.00155
591.197	101.69423
591.399	97.36534
591.601	96.16181
591.803	84.98036
592.006	86.89616
592.208	84.71466
592.41	90.77784
592.612	92.22075
592.815	94.56791
593.017	94.97952
593.219	87.33231
593.421	86.12308
593.623	86.91899
593.825	92.01473
594.027	87.50418
594.229	85.62599
594.432	81.57679
594.634	86.24991
594.836	88.13828
595.038	95.65288
595.24	98.64971
595.442	99.84231
595.644	95.38812
595.846	87.43401
596.048	93.02077
596.249	95.38809
596.451	100.70559
596.653	90.44483
596.855	90.67888
597.057	96.78194
597.259	101.24198
597.461	95.33495
597.663	91.34428
597.864	93.07275
598.066	93.93619
598.268	91.6688
598.47	91.44468
598.671	93.72358
598.873	90.03665
599.075	85.46678
599.277	89.76108
599.478	95.14887
599.68	98.15827
599.882	105.66121
600.083	109.69652
600.285	108.80721
600.487	97.3332
600.688	94.18884
600.89	95.85932
601.091	94.33454
601.293	97.52623
601.494	98.3363
601.696	104.73307
601.898	96.15465
602.099	101.24901
602.301	97.31803
602.502	104.77395
602.703	99.9038
602.905	96.3177
603.106	91.90437
603.308	95.57597
603.509	106.0402
603.711	109.10547
603.912	108.21727
604.113	105.95531
604.315	102.66179
604.516	105.76064
604.717	107.88245
604.919	108.37643
605.12	112.7645
605.321	115.96878
605.522	120.76072
605.724	115.98724
605.925	115.57433
606.126	117.42554
606.327	121.80545
606.528	120.76913
606.729	125.30625
606.931	129.28321
607.132	139.86182
607.333	140.47689
607.534	142.55419
607.735	133.52315
607.936	133.76197
608.137	143.87378
608.338	153.89745
608.539	157.84018
608.74	147.18205
608.941	149.27457
609.142	154.11086
609.343	161.87499
609.544	162.21631
609.745	160.79554
609.946	150.42165
610.147	148.51081
610.348	149.28608
610.549	160.08631
610.75	167.49886
610.95	166.85545
611.151	162.66213
611.352	159.96925
611.553	159.59499
611.754	157.64254
611.954	153.71942
612.155	149.23081
612.356	147.14316
612.557	145.89984
612.757	147.45681
612.958	147.6554
613.159	149.26111
613.359	146.94239
613.56	142.4386
613.761	139.40484
613.961	140.36367
614.162	139.1601
614.362	136.60056
614.563	133.69482
614.764	137.63161
614.964	137.06409
615.165	135.07214
615.365	132.52913
615.566	128.63148
615.766	124.90143
615.967	124.22094
616.167	123.83809
616.368	125.44608
616.568	119.01597
616.768	112.26086
616.969	106.77983
617.169	103.75243
617.37	104.46012
617.57	108.11816
617.77	107.44474
617.971	106.04885
618.171	97.51567
618.371	97.25336
618.571	98.93036
618.772	100.39978
618.972	97.51208
619.172	93.30227
619.372	94.19583
619.573	96.36872
619.773	91.95796
619.973	89.47499
620.173	83.59276
620.373	80.23123
620.573	77.82308
620.774	79.25409
620.974	79.31391
621.174	78.40639
621.374	78.41787
621.574	76.72723
621.774	78.85604
621.974	73.21866
622.174	70.888
622.374	67.42488
622.574	68.70392
622.774	67.919
622.974	65.61924
623.174	65.22226
623.374	68.12201
623.574	65.64662
623.774	72.31892
623.973	75.38622
624.173	73.65458
624.373	60.82073
624.573	55.73882
624.773	58.93027
624.973	60.21061
625.172	58.35575
625.372	64.35008
625.572	68.80263
625.772	69.35185
625.971	63.03519
626.171	59.84683
626.371	57.37561
626.57	60.01759
626.77	59.20608
626.97	59.95854
627.169	55.03491
627.369	61.49032
627.569	63.24658
627.768	63.73997
627.968	60.97407
628.167	62.56767
628.367	63.99818
628.566	57.22048
628.766	52.49877
628.965	51.85356
629.165	55.69053
629.364	61.48505
629.564	60.89248
629.763	54.7429
629.963	52.68956
630.162	54.05638
630.362	53.20972
630.561	56.73071
630.76	59.07594
630.96	67.64321
631.159	70.27455
631.358	65.42454
631.558	64.8692
631.757	62.75208
631.956	62.61714
632.155	58.38381
632.355	57.8609
632.554	60.04979
632.753	67.82953
632.952	60.70294
633.152	63.39907
633.351	59.2662
633.55	61.74603
633.749	63.41018
633.948	60.50661
634.147	66.53107
634.346	59.98538
634.545	58.6205
634.744	54.38848
634.944	56.34592
635.143	60.60553
635.342	65.29241
635.541	62.74786
635.74	62.49961
635.939	55.45916
636.138	54.7437
636.336	54.57574
636.535	54.49101
636.734	54.06644
636.933	50.22521
637.132	49.66529
637.331	49.31211
637.53	48.33558
637.729	49.12229
637.928	48.95242
638.126	51.33085
638.325	49.53111
638.524	50.80518
638.723	51.159
638.921	51.42384
639.12	48.23513
639.319	46.9014
639.518	47.48625
639.716	59.31469
639.915	65.21784
640.114	57.59886
640.312	45.01681
640.511	36.77569
640.71	39.77468
640.908	46.61093
641.107	48.23501
641.305	53.66942
641.504	49.2753
641.702	49.46841
641.901	45.03525
642.099	40.77467
642.298	40.05995
642.496	42.38738
642.695	45.28273
642.893	43.43111
643.092	40.8485
643.29	44.89131
643.489	40.42421
643.687	41.60393
643.885	43.42485
644.084	49.15799
644.282	51.20202
644.48	45.40665
644.679	44.58779
644.877	39.1162
645.075	38.10463
645.274	43.1962
645.472	43.68164
645.67	46.25285
645.868	49.3394
646.067	53.47741
646.265	53.44844
646.463	49.37815
646.661	41.30056
646.859	43.41354
647.057	37.94
647.256	50.48528
647.454	43.64543
647.652	44.6906
647.85	38.04478
648.048	45.64108
648.246	49.97414
648.444	50.10463
648.642	40.88351
648.84	36.44955
649.038	36.41186
649.236	41.55739
649.434	42.56742
649.632	48.988
649.83	52.5047
650.028	52.69978
650.226	48.14213
650.423	46.74474
650.621	46.68096
650.819	44.42633
651.017	47.22858
651.215	46.70659
651.413	48.11391
651.61	41.36973
651.808	44.63254
652.006	43.68485
652.204	37.36385
652.401	36.1858
652.599	33.22575
652.797	40.03423
652.995	42.99832
653.192	49.25049
653.39	51.98868
653.588	45.21391
653.785	42.44195
653.983	34.29862
654.18	39.96072
654.378	42.11026
654.576	52.20574
654.773	52.98779
654.971	57.39098
655.168	60.25692
655.366	58.7917
655.563	55.50495
655.761	51.85822
655.958	46.65242
656.156	53.8329
656.353	53.92
656.55	79.08484
656.748	91.83931
656.945	132.85858
657.143	178.79285
657.34	239.80957
657.537	308.00488
657.735	381.31612
657.932	471.81642
658.129	564.64091
658.326	670.50702
658.524	783.64158
658.721	897.13157
658.918	994.9567
659.115	1072.96299
659.313	1136.00216
659.51	1196.95571
659.707	1239.09506
659.904	1282.8164
660.101	1299.10137
660.298	1312.06637
660.496	1311.10313
660.693	1306.18871
660.89	1308.0581
661.087	1313.76088
661.284	1331.58898
661.481	1328.98879
661.678	1326.99832
661.875	1297.67422
662.072	1300.73068
662.269	1299.68917
662.466	1309.39306
662.663	1306.80869
662.86	1283.82837
663.057	1264.43933
663.254	1240.44706
663.45	1222.88093
663.647	1212.74423
663.844	1190.98932
664.041	1185.62506
664.238	1171.31094
664.435	1170.12933
664.631	1160.80098
664.828	1151.97802
665.025	1144.88189
665.222	1125.25165
665.419	1101.55531
665.615	1076.21547
665.812	1054.52333
666.009	1016.8772
666.205	956.51602
666.402	896.05259
666.599	851.89634
666.795	822.36426
666.992	803.40529
667.188	782.8571
667.385	757.95289
667.582	729.87044
667.778	708.82009
667.975	683.43647
668.171	655.65259
668.368	619.97579
668.564	579.88589
668.761	528.17058
668.957	478.62868
669.154	432.48468
669.35	376.77247
669.547	329.82832
669.743	275.42025
669.939	225.62466
670.136	167.45058
670.332	117.08556
670.528	83.50727
670.725	65.93813
670.921	56.11592
671.117	52.98678
671.314	50.45494
671.51	49.47465
671.706	46.86922
671.902	40.02749
672.099	41.36791
672.295	44.88337
672.491	43.58494
672.687	37.19706
672.883	32.5775
673.08	34.85866
673.276	36.97598
673.472	39.18666
673.668	41.17742
673.864	41.27632
674.06	40.40249
674.256	38.21107
674.452	35.63787
674.648	34.59298
674.844	28.0158
675.04	34.66329
675.236	35.27511
675.432	42.62901
675.628	43.04955
675.824	47.3843
676.02	51.92651
676.216	50.19823
676.412	44.56384
676.608	42.50039
676.804	42.66507
676.999	50.48397
677.195	48.4356
677.391	44.88203
677.587	42.63847
677.783	44.23797
677.978	45.73229
678.174	47.61441
678.37	49.59796
678.566	48.78585
678.761	41.06776
678.957	36.63333
679.153	41.33313
679.348	46.47646
679.544	51.82331
679.74	53.04647
679.935	51.09809
680.131	46.34782
680.327	45.15551
680.522	46.39436
680.718	38.31086
680.913	37.72281
681.109	31.666
681.304	40.26652
681.5	38.14499
681.695	41.30273
681.891	39.84052
682.086	45.38519
682.282	42.42543
682.477	38.54279
682.672	30.29825
682.868	38.56578
683.063	43.00031
683.259	47.5558
683.454	47.33202
683.649	47.20382
683.845	40.4367
684.04	35.31765
684.235	37.11055
684.43	38.66862
684.626	37.95775
684.821	30.45831
685.016	32.20307
685.211	30.8952
685.407	29.33274
685.602	30.29228
685.797	30.97683
685.992	32.73985
686.187	26.75002
686.382	23.26841
686.577	23.00707
686.773	25.15665
686.968	24.5686
687.163	27.49794
687.358	33.95122
687.553	35.22325
687.748	36.8866
687.943	29.58396
688.138	28.57151
688.333	22.24921
688.528	21.63066
688.723	23.97888
688.918	27.63012
689.112	34.76311
689.307	37.30623
689.502	33.62535
689.697	30.33743
689.892	26.94657
690.087	27.89239
690.282	22.15662
690.476	20.59422
690.671	23.00229
690.866	26.55885
691.061	35.16086
691.255	29.91573
691.45	24.7646
691.645	14.14251
691.84	15.38261
692.034	20.59437
692.229	19.87528
692.424	18.79824
692.618	18.27669
692.813	15.54004
693.007	11.14158
693.202	8.11296
693.397	12.41487
693.591	16.65136
693.786	16.29255
693.98	18.67098
694.175	24.66563
694.369	28.12102
694.564	26.78314
694.758	25.93443
694.953	25.4771
695.147	23.52592
695.342	18.8691
695.536	15.41626
695.73	13.88392
695.925	23.00373
696.119	25.44773
696.313	26.45736
696.508	16.65271
696.702	21.21786
696.896	22.94393
697.091	28.12763
697.285	26.72415
697.479	29.62723
697.673	23.43301
697.868	23.7607
698.062	22.74844
698.256	24.44509
698.45	21.08396
698.644	21.50697
698.839	21.31063
699.033	19.91145
699.227	17.27275
699.421	19.554
699.615	12.64483
699.809	13.71869
700.003	16.0642
700.197	21.96242
700.391	22.87577
700.585	18.76826
700.779	22.3859
700.973	23.65524
701.167	21.53852
701.361	24.6988
701.555	20.88913
701.749	22.25778
701.943	17.82636
702.137	14.69712
702.331	14.43536
702.525	14.56842
702.718	22.71513
702.912	28.90403
703.106	27.33811
703.3	25.48423
703.494	16.5595
703.687	22.9489
703.881	19.91305
704.075	25.12852
704.269	22.81243
704.462	26.62569
704.656	26.59025
704.85	27.79325
705.043	27.79513
705.237	28.18676
705.431	24.18063
705.624	20.20433
705.818	19.58253
706.012	22.54825
706.205	22.64468
706.399	26.13328
706.592	24.75943
706.786	28.31484
706.979	34.83158
707.173	32.91397
707.366	34.21349
707.56	27.92617
707.753	28.28388
707.947	26.78852
708.14	26.49173
708.333	25.35149
708.527	23.59005
708.72	16.74925
708.914	22.12548
709.107	22.35088
709.3	32.32383
709.494	26.32731
709.687	23.88652
709.88	20.91921
710.073	23.4288
710.267	27.07716
710.46	28.24993
710.653	27.11039
710.846	27.49899
711.04	32.94201
711.233	36.72149
711.426	39.00205
711.619	32.77472
711.812	31.96388
712.005	27.76321
712.198	24.80144
712.391	27.30279
712.585	28.60497
712.778	29.97139
712.971	25.21655
713.164	22.25404
713.357	18.76764
713.55	20.82205
713.743	25.02373
713.936	26.09745
714.129	20.13522
714.322	21.08043
714.514	24.37602
714.707	29.29579
714.9	24.24705
715.093	20.36886
715.286	22.03049
715.479	27.5012
715.672	26.91448
715.864	26.32532
716.057	23.52346
716.25	22.28364
716.443	19.97306
716.636	24.7667
716.828	37.11484
717.021	41.54493
717.214	39.25786
717.406	33.59056
717.599	39.74423
717.792	43.68911
717.984	47.79147
718.177	44.6686
718.37	42.35441
718.562	38.60833
718.755	35.44396
718.947	34.89053
719.14	31.37181
719.333	34.62829
719.525	31.0142
719.718	33.45603
719.91	31.27839
720.103	35.7017
720.295	38.95737
720.487	36.3493
720.68	35.7342
720.872	31.37163
721.065	30.03501
721.257	30.97626
721.449	32.54493
721.642	39.6817
721.834	33.46486
722.026	30.01053
722.219	27.40601
722.411	29.4882
722.603	33.32991
722.796	34.43519
722.988	35.38458
723.18	36.5575
723.372	29.48929
723.565	28.18291
723.757	32.48161
723.949	36.61692
724.141	38.77041
724.333	28.90009
724.525	27.83012
724.717	28.21967
724.91	33.8546
725.102	30.75319
725.294	28.53978
725.486	23.72081
725.678	27.20699
725.87	26.81071
726.062	29.54404
726.254	28.56842
726.446	29.31886
726.638	25.80022
726.83	26.94337
727.022	22.28501
727.213	27.30335
727.405	27.49539
727.597	30.87993
727.789	29.80887
727.981	26.61616
728.173	34.07988
728.365	37.30015
728.556	38.56734
728.748	37.13109
728.94	31.23817
729.132	29.77823
729.324	31.37668
729.515	36.62621
729.707	36.55724
729.899	38.76936
730.09	33.8777
730.282	33.90783
730.474	25.67148
730.665	30.62043
730.857	37.10765
731.049	40.85547
731.24	37.76367
731.432	35.58387
731.623	33.20275
731.815	36.36289
732.006	37.0088
732.198	36.19246
732.389	30.35887
732.581	29.87605
732.772	30.04124
732.964	29.22847
733.155	29.35468
733.347	34.20687
733.538	41.8631
733.729	45.58232
733.921	43.36791
734.112	36.46327
734.304	30.04104
734.495	25.12452
734.686	26.78228
734.877	29.29388
735.069	25.96799
735.26	24.01389
735.451	18.99196
735.643	25.86922
735.834	27.07617
736.025	29.22554
736.216	24.85793
736.407	25.54202
736.599	28.67681
736.79	29.23231
736.981	28.61186
737.172	28.73974
737.363	23.78612
737.554	23.10286
737.745	23.07186
737.936	25.84108
738.127	28.48028
738.318	20.16836
738.509	20.65695
738.7	17.04277
738.891	19.71658
739.082	26.13162
739.273	24.10974
739.464	25.90227
739.655	21.0831
739.846	21.37563
740.037	22.51486
740.228	21.08195
740.419	28.18242
740.609	21.6649
740.8	23.52375
740.991	12.31792
741.182	15.83288
741.373	21.17567
741.563	32.15332
741.754	34.92609
741.945	35.54643
742.136	31.15163
742.326	27.92814
742.517	23.10553
742.708	24.14453
742.898	24.43725
743.089	22.86943
743.28	19.44765
743.47	20.06424
743.661	22.77536
743.851	28.58205
744.042	26.79263
744.233	27.82926
744.423	22.61344
744.614	22.5456
744.804	20.33569
744.995	20.95294
745.185	26.9528
745.376	23.20108
745.566	24.89807
745.756	21.40565
745.947	24.53676
746.137	24.9273
746.328	24.53827
746.518	21.44064
746.708	18.34581
746.899	18.50773
747.089	26.36449
747.279	28.15301
747.47	34.70781
747.66	29.26157
747.85	26.72028
748.04	19.05783
748.231	20.85269
748.421	27.69464
748.611	30.24216
748.801	30.04582
748.991	25.09375
749.182	16.84584
749.372	14.33441
749.562	16.5872
749.752	25.41425
749.942	23.10142
750.132	20.00126
750.322	12.80379
750.512	12.3152
750.702	12.67506
750.892	17.23694
751.082	21.96434
751.272	23.75763
751.462	23.69203
751.652	30.76185
751.842	33.69232
752.032	35.71286
752.222	27.01124
752.412	20.91749
752.602	15.83529
752.792	25.57563
752.981	24.63116
753.171	30.07378
753.361	20.92121
753.551	20.43437
753.741	17.36878
753.93	23.23442
754.12	23.20107
754.31	25.84281
754.5	26.09869
754.689	31.50985
754.879	31.89689
755.069	28.1233
755.258	27.40377
755.448	26.06874
755.638	30.88873
755.827	29.51989
756.017	32.0936
756.206	29.39331
756.396	31.7075
756.586	32.00445
756.775	30.17217
756.965	27.49832
757.154	25.70165
757.344	22.44624
757.533	26.68324
757.723	20.33178
757.912	18.21447
758.101	16.97922
758.291	18.05452
758.48	20.95494
758.67	18.70535
758.859	26.26236
759.048	24.86086
759.238	25.44691
759.427	20.00422
759.616	20.00324
759.806	21.8905
759.995	28.023
760.184	31.24935
760.373	25.48472
760.563	24.17539
760.752	23.13473
760.941	27.14172
761.13	19.22752
761.319	21.47048
761.509	24.63238
761.698	29.64843
761.887	28.09053
762.076	23.0707
762.265	26.5285
762.454	24.53668
762.643	28.61073
762.832	27.89174
763.021	28.54556
763.21	24.79635
763.399	25.54477
763.588	28.47674
763.777	31.76667
763.966	26.7497
764.155	22.61012
764.344	21.69935
764.533	25.08724
764.722	25.08546
764.911	26.22828
765.1	24.98792
765.288	32.93599
765.477	25.92894
765.666	33.84783
765.855	27.23874
766.044	30.85843
766.232	23.04132
766.421	20.27192
766.61	22.09564
766.799	25.31733
766.987	29.87848
767.176	29.81347
767.365	25.93735
767.553	22.38284
767.742	19.48063
767.931	21.21088
768.119	18.76973
768.308	24.73513
768.497	21.89727
768.685	25.08924
768.874	22.90372
769.062	16.48555
769.251	13.03407
769.439	10.13478
769.628	16.3268
769.816	19.45257
770.005	15.99821
770.193	23.16686
770.382	24.37437
770.57	28.80727
770.758	25.42177
770.947	23.07419
771.135	20.49911
771.323	16.2606
771.512	19.2309
771.7	13.85439
771.888	9.42132
772.077	6.87737
772.265	14.43723
772.453	17.23926
772.642	16.58686
772.83	13.84965
773.018	13.91453
773.206	16.22981
773.394	18.31519
773.583	19.06802
773.771	15.74173
773.959	16.49297
774.147	13.88286
774.335	12.38395
774.523	12.3824
774.711	17.20766
774.899	17.04452
775.087	22.48467
775.275	17.13844
775.463	31.48001
775.651	24.54182
775.839	26.62859
776.027	16.06891
776.215	15.48446
776.403	18.08728
776.591	20.85644
776.779	20.65727
776.967	20.33593
777.155	15.87023
777.343	25.22835
777.531	21.70709
777.718	25.78337
777.906	14.27514
778.094	17.27464
778.282	15.31386
778.47	18.79933
778.657	20.36366
778.845	23.39678
779.033	27.17544
779.22	28.18206
779.408	28.67106
779.596	29.45461
779.783	31.34299
779.971	32.71122
780.159	32.90461
780.346	41.1481
780.534	43.84747
780.722	49.51465
780.909	46.48498
781.097	44.62975
781.284	47.22867
781.472	49.21307
781.659	54.52816
781.847	53.3897
782.034	50.1903
782.222	48.71998
782.409	51.41911
782.597	50.86814
782.784	54.49782
782.971	46.59668
783.159	51.0909
783.346	49.77126
783.533	54.71352
783.721	50.44997
783.908	44.87816
784.095	44.68433
784.283	49.60288
784.47	52.27813
784.657	50.5166
784.844	50.81239
785.032	48.53387
785.219	47.10441
785.406	47.20384
785.593	45.67082
785.78	50.46254
785.968	45.54209
786.155	49.02305
786.342	41.91785
786.529	40.81013
786.716	36.02867
786.903	32.02402
787.09	29.75173
787.277	32.35364
787.464	36.32595
787.651	38.08246
787.838	39.81032
788.025	39.35828
788.212	36.58636
788.399	30.00614
788.586	29.61813
788.773	29.97807
788.96	38.94568
789.147	32.81866
789.334	31.48282
789.521	21.04924
789.707	26.16671
789.894	24.04931
790.081	20.95637
790.268	16.6202
790.455	14.37028
790.641	8.79677
790.828	4.88711
791.015	7.82138
791.202	11.86225
791.388	20.53147
791.575	16.91519
791.762	14.04763
791.948	2.511
792.135	-1.85754
792.322	-0.29366
792.508	1.69456
792.695	7.85479
792.881	5.37799
793.068	5.21492
793.254	7.00757
793.441	6.16026
793.627	5.18225
793.814	3.48904
794	3.91281
794.187	6.65032
794.373	5.05076
794.56	7.39753
794.746	2.2481
794.933	3.39069
795.119	6.90895
795.305	18.38547
795.492	15.90649
795.678	12.35558
795.864	9.12438
796.051	10.55957
796.237	13.1669
796.423	9.54991
796.61	12.38572
796.796	13.33207
796.982	9.06238
797.168	1.33731
797.355	3.38908
797.541	9.84206
797.727	12.54763
797.913	8.18059
798.099	6.55187
798.285	11.50343
798.471	10.59036
798.658	10.3294
798.844	3.81306
799.03	5.44331
799.216	4.33429
799.402	7.16887
799.588	11.4381
799.774	17.20472
799.96	20.6918
800.146	16.22697
800.332	5.44237
800.518	-2.05267
800.704	-5.73568
800.89	3.68527
801.075	0.91493
801.261	5.7396
801.447	-0.12948
801.633	9.09499
801.819	10.95215
802.005	13.36418
802.19	8.96355
802.376	3.84637
802.562	12.87101
802.748	15.60884
802.934	21.21538
803.119	15.67739
803.305	13.88401
803.491	13.26631
803.676	11.66984
803.862	7.49813
804.048	7.16894
804.233	1.92163
804.419	8.21303
804.605	5.05264
804.79	9.77864
804.976	8.18048
805.161	11.2773
805.347	5.67069
805.532	5.54095
805.718	1.82481
805.903	6.87761
806.089	5.21538
806.274	6.03058
806.46	4.46579
806.645	5.34562
806.831	8.05163
807.016	10.5607
807.201	11.96297
807.387	8.11569
807.572	6.25876
807.757	5.50838
807.943	10.95243
808.128	13.49368
808.313	12.87359
808.499	12.9055
808.684	12.45068
808.869	13.10265
809.054	10.07213
809.24	-0.29309
809.425	0.55617
809.61	-1.20446
809.795	3.35858
809.98	5.96354
810.165	2.34638
810.35	5.70314
810.536	3.91148
810.721	5.05124
810.906	-3.29175
811.091	-3.16154
811.276	2.24999
811.461	4.53171
811.646	-3.71375
811.831	-10.59192
812.016	-0.45528
812.201	-0.22788
812.386	4.40091
812.571	-3.84618
812.756	1.696
812.941	1.23902
813.125	1.62949
813.31	1.00963
813.495	1.95555
813.68	7.17094
813.865	4.26998
814.05	3.97643
814.234	2.24868
814.419	1.20648
814.604	-1.95561
814.789	-1.69516
814.973	1.66156
815.158	4.13919
815.343	4.72718
815.528	9.7793
815.712	7.79075
815.897	5.67158
816.081	0.26088
816.266	0.55424
816.451	3.35784
816.635	7.3986
816.82	10.30049
817.004	14.50356
817.189	15.02609
817.374	13.9492
817.558	5.93192
817.743	5.50713
817.927	3.51915
818.111	12.41656
818.296	14.11264
818.48	18.28518
818.665	15.48277
818.849	5.41105
819.034	0.7821
819.218	0.71831
819.402	10.49765
819.587	12.38762
819.771	3.52044
819.955	-1.17511
820.14	2.80243
820.324	8.79984
820.508	9.38724
820.692	7.30071
820.877	1.62977
821.061	0.61952
821.245	6.09509
821.429	7.30081
821.613	10.65938
821.798	7.17206
821.982	12.06186
822.166	9.9415
822.35	4.00946
822.534	4.17147
822.718	5.08526
822.902	7.36651
823.086	5.47637
823.27	4.75889
823.454	-0.35926
823.638	-1.23915
823.822	-0.45799
824.006	8.14851
824.19	8.83309
824.374	6.32405
824.558	-1.72787
824.742	-6.32213
824.926	-5.2135
825.11	-0.19346
825.294	8.2789
825.477	5.60557
825.661	6.64984
825.845	4.69507
826.029	1.76115
826.213	2.02199
826.396	1.40268
826.58	6.84603
826.764	1.46639
826.948	-0.78285
827.131	-3.19476
827.315	0.39074
827.499	0.84698
827.682	3.52048
827.866	4.5639
828.05	8.73493
828.233	9.32113
828.417	13.71825
828.6	13.13215
828.784	11.04599
828.967	2.86775
829.151	4.46562
829.335	5.80236
829.518	5.0854
829.701	2.99962
829.885	6.19477
830.068	10.07364
830.252	7.10695
830.435	2.54258
830.619	0.00003
830.802	1.17396
830.985	-1.98737
831.169	-2.99764
831.352	-4.43227
831.535	-0.32591
831.719	1.59702
831.902	3.3571
832.085	6.09181
832.269	4.88561
832.452	4.42928
832.635	-1.01107
832.818	3.94385
833.002	2.99858
833.185	4.23769
833.368	4.01087
833.551	4.20634
833.734	5.51019
833.917	-2.21517
834.1	-4.26928
834.284	-1.26925
834.467	-0.71648
834.65	0.22949
834.833	3.71426
835.016	10.62413
835.199	8.99399
835.382	7.6599
835.565	6.06321
835.748	7.33483
835.931	4.33557
836.114	8.2147
836.297	6.22662
836.479	0.03425
836.662	0.65512
836.845	3.81662
837.028	8.08601
837.211	1.46714
837.394	1.43469
837.577	5.3126
837.759	5.18216
837.942	2.18339
838.125	0.81487
838.308	3.2923
838.49	6.77948
838.673	3.97642
838.856	7.1392
839.039	6.29213
839.221	1.85913
839.404	-2.80326
839.587	-4.04229
839.769	1.95485
839.952	4.43173
840.134	8.83418
840.317	9.61643
840.499	6.42254
840.682	3.78074
840.865	-2.31413
841.047	-0.74949
841.23	-0.03266
841.412	2.70532
841.595	-0.19562
841.777	-6.16198
841.959	-3.52151
842.142	-1.33803
842.324	3.22699
842.507	0.87989
842.689	-1.36888
842.871	-0.65208
843.054	-4.56296
843.236	-1.17313
843.418	3.65102
843.601	7.46413
843.783	-0.78047
843.965	-4.78922
844.147	-3.45308
844.33	4.694
844.512	3.81368
844.694	2.31455
844.876	6.19041
845.059	15.87092
845.241	10.5253
845.423	1.53202
845.605	-14.79496
845.787	-6.38522
845.969	-2.27889
846.151	-0.03462
846.333	3.35382
846.515	3.94046
846.697	12.44732
846.879	9.22191
847.061	15.90047
847.243	17.92431
847.425	21.60676
847.607	20.01114
847.789	20.20494
847.971	21.5055
848.153	23.10426
848.335	26.9487
848.517	26.82046
848.699	27.30757
848.881	30.40215
849.062	27.53484
849.244	23.005
849.426	14.53423
849.608	19.68131
849.789	22.45008
849.971	27.0741
850.153	22.90377
850.335	23.55483
850.516	21.50639
850.698	23.03909
850.88	24.37414
851.061	31.23944
851.243	31.95338
851.425	28.99212
851.606	28.80524
851.788	31.70435
851.969	35.51658
852.151	28.96288
852.333	29.25528
852.514	22.63956
852.696	24.14163
852.877	12.93586
853.059	22.08713
853.24	16.0565
853.422	26.48227
853.603	17.65675
853.784	22.19006
853.966	17.3034
854.147	22.16189
854.329	21.60456
854.51	31.08857
854.691	26.62093
854.873	27.07964
855.054	24.50302
855.235	31.05451
855.416	33.1371
855.598	23.13436
855.779	14.79117
855.96	9.38492
856.141	13.88429
856.323	14.43811
856.504	13.55918
856.685	11.66665
856.866	8.76672
857.047	7.78912
857.228	-0.65072
857.409	5.44276
857.591	3.74759
857.772	10.4289
857.953	4.33529
858.134	8.27796
858.315	1.40191
858.496	10.00763
858.677	6.09728
858.858	10.49616
859.039	4.56272
859.22	10.4971
859.401	8.18258
859.582	7.20546
859.762	2.02094
859.943	4.27044
860.124	8.1494
860.305	5.24835
860.486	3.91178
860.667	4.20568
860.848	2.80386
861.028	1.49957
861.209	1.27121
861.39	1.76007
861.571	3.06436
861.751	-3.87898
861.932	-2.73783
862.113	6.35907
862.293	10.66095
862.474	13.95358
862.655	8.63695
862.835	8.8013
863.016	9.25694
863.197	6.74775
863.377	1.04116
863.558	-8.44467
863.738	-11.24752
863.919	2.96159
864.099	14.7623
864.28	19.74762
864.46	10.82014
864.641	8.86313
864.821	5.50734
865.002	4.88867
865.182	2.44478
865.363	5.70435
865.543	6.1609
865.723	9.1282
865.904	4.07637
866.084	-0.29192
866.264	-7.10419
866.445	-0.52067
866.625	4.2694
866.805	9.45073
866.986	0.55273
867.166	-4.79076
867.346	-3.25829
867.526	0.91364
867.707	2.96675
867.887	-0.1953
868.067	0.45642
868.247	-1.33672
868.427	1.17264
868.607	-1.69593
868.788	-1.23951
868.968	-5.11758
869.148	-2.73784
869.328	-1.33631
869.508	-0.39137
869.688	0.16279
869.868	1.89067
870.048	0.35865
870.228	-1.23859
870.408	2.47874
870.588	5.08597
870.768	10.10542
870.948	5.21447
871.128	1.79193
871.307	1.40078
871.487	-1.69408
871.667	5.99918
871.847	5.08757
872.027	9.09487
872.207	6.84636
872.387	3.25997
872.566	3.22742
872.746	-1.10876
872.926	3.5838
873.106	8.04989
873.285	15.97071
873.465	14.79861
873.645	16.26644
873.824	11.60613
874.004	13.07309
874.184	5.15106
874.363	2.11884
874.543	-6.74897
874.723	-0.62121
874.902	0.42186
875.082	7.56249
875.261	4.59557
875.441	-3.52256
875.62	-4.63141
875.8	-7.30333
875.979	-1.40162
876.159	-1.98828
876.338	3.48644
876.518	8.86417
876.697	7.07163
876.876	6.06293
877.056	8.50553
877.235	5.99464
877.415	-1.7308
877.594	-8.606
877.773	-8.01789
877.953	0.00085
878.132	1.14177
878.311	-0.5543
878.49	-7.26928
878.67	-13.36404
878.849	-6.94155
879.028	-4.0406
879.207	4.59659
879.387	1.85771
879.566	4.1718
879.745	1.30345
879.924	1.72744
880.103	-3.55412
880.282	-0.81568
880.461	4.23883
880.64	6.78255
880.819	9.87943
880.998	8.0839
881.178	7.88823
881.357	7.07202
881.536	0.71607
881.715	5.11683
881.893	3.29291
882.072	8.18246
882.251	5.02071
882.43	-4.82811
882.609	-0.75316
882.788	-4.56685
882.967	-0.52188
883.146	-3.48775
883.325	5.11724
883.503	9.97512
883.682	9.94206
883.861	12.22328
884.04	6.02925
884.219	3.87784
884.397	-4.98718
884.576	3.16161
884.755	-0.0997
884.933	6.22279
885.112	5.5399
885.291	9.12702
885.469	6.22743
885.648	3.45603
885.827	9.45571
886.005	6.39079
886.184	2.51105
886.363	-0.78155
886.541	-0.65135
886.72	8.26891
886.898	7.15985
887.077	6.89921
887.255	4.01044
887.434	-1.6947
887.612	0.88076
887.791	-0.48859
887.969	6.42325
888.147	4.17373
888.326	-0.91139
888.504	1.49872
888.682	4.95443
888.861	9.9089
889.039	5.76978
889.218	6.03109
889.396	7.72619
889.574	6.68311
889.752	1.69517
889.931	-8.34487
890.109	-9.71399
890.287	-6.09603
890.465	2.1514
890.643	5.70399
890.822	0.68426
891	1.69422
891.178	3.22836
891.356	8.86678
891.534	9.58517
891.712	12.05843
891.89	17.5026
892.068	17.11069
892.247	13.2674
892.425	7.62807
892.603	3.651
892.781	5.1168
892.959	-2.02019
893.137	-0.1294
893.314	-7.49624
893.492	1.79248
893.67	-3.32545
893.848	0.58656
894.026	-7.95415
894.204	-7.72426
894.382	-4.30012
894.56	-1.88785
894.738	2.86978
894.915	2.24827
895.093	4.13902
895.271	8.57098
895.449	6.74596
895.626	15.05854
895.804	9.68135
895.982	9.77982
896.16	5.347
896.337	7.98704
896.515	5.24859
896.693	-4.88866
896.87	-2.9977
897.048	-1.00963
897.225	3.32457
897.403	2.80246
897.581	2.60696
897.758	3.84562
897.936	0.12995
898.113	-5.21538
898.291	-1.92294
898.468	-2.05322
898.646	1.10851
898.823	0.84715
899.001	3.52001
899.178	7.16976
899.356	3.94305
899.533	3.38902
899.71	10.33343
899.888	12.09331
900.065	12.61575
900.242	2.11888
900.42	1.33712
900.597	-2.77088
900.774	-4.23831
900.952	-3.55341
901.129	2.67254
901.306	7.302
901.483	8.60531
901.661	7.00793
901.838	10.69186
902.015	12.1591
902.192	10.75791
902.369	4.14051
902.546	-3.81373
902.723	-1.82614
902.901	-0.1311
903.078	4.43263
903.255	2.67283
903.432	5.14962
903.609	4.98672
903.786	4.0741
903.963	-1.04248
904.14	2.37974
904.317	-1.10934
904.494	2.60598
904.671	3.91212
904.848	11.18254
905.024	9.55286
905.201	0.65113
905.378	-0.84845
905.555	-0.55511
905.732	1.85771
905.909	-4.6586
906.086	-4.29968
906.262	0.16568
906.439	7.89015
906.616	9.71514
906.793	6.45618
906.969	9.02896
907.146	4.56284
907.323	1.46557
907.5	-5.73818
907.676	-1.50022
907.853	-1.46706
908.03	3.5195
908.206	3.94422
908.383	9.19247
908.559	10.20303
908.736	3.51951
908.912	0.84641
909.089	-6.32311
909.266	1.30523
909.442	-2.50951
909.619	2.21612
909.795	1.43297
909.972	3.61818
910.148	1.4994
910.324	-2.18371
910.501	7.20574
910.677	9.12996
910.854	8.38029
911.03	1.20718
911.206	-0.06575
911.383	-1.10909
911.559	-3.55348
911.735	-7.52962
911.912	-5.50834
912.088	-2.24916
912.264	0.22808
912.44	2.57515
912.617	3.39036
912.793	3.32517
912.969	1.85819
913.145	-0.78218
913.321	2.86849
913.498	3.87856
913.674	9.41995
913.85	3.48815
914.026	-1.20465
914.202	-3.74737
914.378	-5.3788
914.554	-6.6184
914.73	-10.10544
914.906	-6.64924
915.082	0.13095
915.258	5.54238
915.434	5.08594
915.61	4.72807
915.786	4.01012
915.962	6.91197
916.138	2.47733
916.314	-4.10758
916.49	-0.98019
916.665	2.01994
916.841	2.28048
917.017	-5.18282
917.193	-5.90022
917.369	-5.57311
917.545	0.75136
917.72	0.26236
917.896	2.34776
918.072	-1.14098
918.247	-1.49964
918.423	-2.21705
918.599	2.21694
918.775	8.0846
918.95	6.9785
919.126	-0.51887
919.301	-2.3776
919.477	0.71727
919.653	0.52019
919.828	-4.66226
920.004	-3.55492
920.179	6.18247
920.355	8.39921
920.53	4.25934
920.706	-1.95684
920.881	-2.86941
921.057	-1.40152
921.232	2.28265
921.408	10.43118
921.583	13.5929
921.759	6.91028
921.934	-1.92307
922.109	-1.07601
922.285	2.73775
922.46	3.42224
922.635	0.0978
922.811	-2.6408
922.986	1.5314
923.161	0.19469
923.336	2.02003
923.512	-1.36964
923.687	0.06494
923.862	-1.98771
924.037	-0.74936
924.212	-0.74936
924.388	-0.09833
924.563	0.39029
924.738	-1.95728
924.913	-1.79409
925.088	-5.60681
925.263	-2.08545
925.438	0.91323
925.613	6.32379
925.788	1.27024
925.963	1.40103
926.138	-5.02029
926.313	1.92435
926.488	2.54311
926.663	1.37085
926.838	-2.11786
927.013	-5.70332
927.188	2.28138
927.363	6.22608
927.538	3.35726
927.713	-1.40193
927.888	-2.249
928.062	2.08658
928.237	4.49905
928.412	3.61813
928.587	8.11553
928.761	3.3562
928.936	-1.20905
929.111	-4.66332
929.286	3.3231
929.46	11.21262
929.635	5.14807
929.81	-3.13219
929.984	-6.42417
930.159	2.37948
930.334	2.672
930.508	-1.66361
930.683	-4.27179
930.857	5.2159
931.032	11.21453
931.206	9.29104
931.381	1.95574
931.556	-2.34733
931.73	0.16422
931.904	0.39298
932.079	-6.09309
932.253	-6.32312
932.428	-4.88903
932.602	2.90092
932.777	4.95556
932.951	0.979
933.125	1.66329
933.3	-0.26144
933.474	8.63838
933.648	4.30276
933.823	0.26178
933.997	-8.05132
934.171	-5.93192
934.345	-6.3884
934.52	-6.22547
934.694	-2.54149
934.868	0.91413
935.042	7.1076
935.217	3.68391
935.391	-2.70624
935.565	-7.8892
935.739	-8.86615
935.913	-2.96578
936.087	1.27189
936.261	10.39761
936.435	9.9416
936.609	9.19166
936.783	6.61748
936.957	11.79924
937.131	17.23932
937.305	11.24088
937.479	5.4071
937.653	-0.32686
937.827	-0.00042
938.001	5.44346
938.175	1.92347
938.349	-1.50023
938.523	-9.77985
938.697	-8.73659
938.87	-7.69251
939.044	-4.20476
939.218	-3.06415
939.392	4.2713
939.566	5.08615
939.739	3.03264
939.913	0.68483
940.087	1.98848
940.261	9.48563
940.434	6.55165
940.608	6.38766
940.782	1.00924
940.955	-3.06539
941.129	-4.66147
941.302	-8.05223
941.476	-1.59782
941.65	-4.53118
941.823	-2.02055
941.997	-1.27106
942.17	-0.71773
942.344	3.06337
942.517	5.11774
942.691	5.24905
942.864	0.94618
943.038	-2.34692
943.211	1.10833
943.385	-1.85504
943.558	-8.53077
943.731	-12.67073
943.905	-8.6314
944.078	-6.68146
944.251	-4.10641
944.425	-6.71408
944.598	-0.29291
944.771	-1.30365
944.945	0.78236
945.118	0.61871
945.291	0.65124
945.464	-1.89154
945.638	-5.93293
945.811	-6.91036
945.984	-4.62823
946.157	-2.11843
946.33	-3.19443
946.503	-3.65135
946.677	-6.68411
946.85	-0.49044
947.023	1.36807
947.196	7.33532
947.369	5.3144
947.542	3.91274
947.715	3.32493
947.888	-1.20629
948.061	2.70492
948.234	-1.59783
948.407	1.04236
948.58	-1.53243
948.753	0.58646
948.926	0.12986
949.099	-2.11912
949.271	-0.71757
949.444	2.64069
949.617	-0.35965
949.79	-3.58654
949.963	-6.52077
950.136	-0.68454
950.308	-0.06513
950.481	-2.41141
950.654	-0.9445
950.827	-2.67319
950.999	1.20498
951.172	0.94419
951.345	0.22853
951.517	-3.88047
951.69	-1.89273
951.863	4.2351
952.035	13.00508
952.208	7.17007
952.381	4.20367
952.553	1.75904
952.726	3.74819
952.898	4.92173
953.071	2.24895
953.243	1.92299
953.416	-3.03015
953.588	-4.39922
953.761	-10.39871
953.933	-9.32485
954.106	-7.43426
954.278	-0.22874
954.45	1.69456
954.623	1.53177
954.795	-1.76016
954.967	-4.85757
955.14	-2.836
955.312	-2.80392
955.484	2.02115
955.657	-4.01029
955.829	1.23756
956.001	-1.72865
956.173	3.03154
956.346	2.02243
956.518	4.7608
956.69	5.37976
956.862	0.2617
957.034	1.40269
957.207	-3.42089
957.379	-3.74836
957.551	-2.83646
957.723	1.46603
957.895	6.12836
958.067	-1.79367
958.239	0.51956
958.411	2.3769
958.583	7.03983
958.755	0.35726
958.927	-4.9226
959.099	-6.16158
959.271	-8.27964
959.443	-7.2371
959.615	-4.59698
959.787	-0.16374
959.959	-4.43573
960.13	-7.10879
960.302	-7.40215
960.474	-3.81478
960.646	-1.23904
960.818	2.21765
960.99	5.80419
961.161	6.32568
961.333	10.56162
961.505	11.86485
961.677	4.88997
961.848	0.3923
962.02	0.0345
962.192	3.8475
962.363	5.76918
962.535	2.96529
962.707	4.59507
962.878	0.09782
963.05	5.90044
963.221	11.14812
963.393	8.34571
963.564	0.68464
963.736	-7.26873
963.907	-7.26899
964.079	-6.29043
964.25	0.68554
964.422	11.31188
964.593	6.91122
964.765	2.18468
964.936	-7.56232
965.108	-4.36785
965.279	-4.1724
965.45	0.09848
965.622	3.16257
965.793	4.40136
965.964	5.73894
966.136	6.0321
966.307	2.38098
966.478	-3.68413
966.65	-3.6185
966.821	2.70586
966.992	-2.02122
967.163	-2.24987
967.334	-11.11869
967.506	-0.81686
967.677	-0.84915
967.848	2.02162
968.019	2.21806
968.19	-0.45524
968.361	-2.57578
968.532	-2.80478
968.703	3.55044
968.874	8.66977
969.045	3.48628
969.216	-0.65196
969.387	4.13899
969.558	7.59436
969.729	9.74565
969.9	-7.39876
970.071	-9.09367
970.242	-13.65719
970.413	2.34693
970.584	4.13991
970.755	2.28178
970.926	-1.89041
971.097	-7.1384
971.267	-3.52016
971.438	-0.71694
971.609	1.01087
971.78	1.40217
971.951	-3.97533
972.121	-3.06335
972.292	-1.499
972.463	4.85703
972.633	6.29165
972.804	6.12849
972.975	6.97534
973.145	6.84491
973.316	4.98722
973.487	2.44428
973.657	9.87859
973.828	10.49798
973.998	9.39029
974.169	-1.30419
974.339	0.162
974.51	-0.7508
974.68	-1.72876
974.851	-0.48792
975.021	1.23989
975.192	5.31503
975.362	-4.04419
975.533	-8.282
975.703	-12.22642
975.874	-3.94364
976.044	-3.45507
976.214	3.71584
976.385	2.18299
976.555	7.26876
976.725	1.04428
976.896	0.68578
977.066	-3.03033
977.236	2.41194
977.406	-0.26137
977.577	1.33529
977.747	0.25951
977.917	3.06327
978.087	0.81459
978.257	2.34785
978.427	-1.66125
978.598	-0.39005
978.768	-2.31403
978.938	-4.43304
979.108	-8.18148
979.278	-6.51821
979.448	-2.73719
979.618	1.85875
979.788	-3.65071
979.958	-6.74709
980.128	-5.60594
980.298	-6.58585
980.468	-1.30561
980.638	-2.83775
980.808	-1.01004
980.978	-1.04244
981.148	-1.07522
981.317	5.05304
981.487	7.69374
981.657	5.9011
981.827	3.91243
981.997	-2.18467
982.167	-1.10918
982.336	-4.14089
982.506	2.83494
982.676	5.63736
982.846	5.18126
983.015	5.18313
983.185	3.55384
983.355	2.08676
983.524	-2.1192
983.694	-4.85692
983.864	-3.12943
984.033	-1.27102
984.203	0.00014
984.372	0.09804
984.542	-3.7814
984.712	-7.92275
984.881	-7.43378
985.051	-9.81285
985.22	-6.77989
985.39	-8.80086
985.559	-11.57172
985.728	-5.67061
985.898	-1.33569
986.067	3.03276
986.237	-3.42187
986.406	-10.95308
986.576	-2.70614
986.745	-0.03355
986.914	3.84755
987.084	5.73914
987.253	10.4983
987.422	8.44325
987.591	1.23763
987.761	-5.4449
987.93	-5.76863
988.099	-3.71455
988.268	0.6849
988.438	3.19341
988.607	2.8015
988.776	-2.31467
988.945	-1.10826
989.114	-4.53104
989.283	1.40157
989.452	3.12912
989.621	3.94437
989.791	-0.58682
989.96	-1.95578
990.129	-2.57594
990.298	-1.50032
990.467	-7.50108
990.636	-4.20755
990.805	-6.55424
990.974	2.67524
991.142	-1.82272
991.311	-3.84201
991.48	-9.90708
991.649	-8.63683
991.818	-5.18375
991.987	-6.16224
992.156	1.59716
992.325	0.16312
992.493	7.03281
992.662	1.49022
992.831	-0.13774
993	-1.00831
993.168	-2.41011
993.337	-0.65218
993.506	-3.12987
993.675	-4.89047
993.843	2.99909
994.012	3.61836
994.181	8.47607
994.349	2.77092
994.518	5.60779
994.686	2.64148
994.855	5.76987
995.024	1.30347
995.192	1.30327
995.361	0.68409
995.529	-2.1517
995.698	-4.17348
995.866	-11.08357
996.035	-4.2394
996.203	3.03102
996.371	9.1267
996.54	6.8456
996.708	1.23847
996.877	-2.05421
997.045	-7.78986
997.213	-12.25785
997.382	-7.75919
997.55	-0.81786
997.718	2.18358
997.887	3.74884
998.055	-3.68396
998.223	-3.9125
998.391	-7.10701
998.56	4.2367
998.728	6.877
998.896	7.39881
999.064	3.09673
999.232	5.31323
999.401	3.71539
999.569	2.67296
999.737	-0.29325
999.905	-3.4558
1000.073	-6.38938
1000.241	-8.11772
1000.409	-2.21839
1000.577	-1.59951
1000.745	0.12845
1000.913	-3.68398
1001.081	2.15144
1001.249	4.20513
1001.417	5.50911
1001.585	3.68334
1001.753	3.29265
1001.921	0.7172
1002.089	-0.71712
1002.256	-1.8257
1002.424	-4.30292
1002.592	-1.69515
1002.76	-3.74854
1002.928	8.70548
1003.096	8.93297
1003.263	4.72876
1003.431	-0.68333
1003.599	-3.68158
1003.767	4.75998
1003.934	2.18383
1004.102	-0.52137
1004.27	-0.94527
1004.437	-2.44516
1004.605	0.09697
1004.773	-1.66301
1004.94	3.87978
1005.108	0.61946
1005.275	-1.40171
1005.443	-5.99879
1005.61	-6.48631
1005.778	-4.53041
1005.945	-3.58494
1006.113	-0.16293
1006.28	0.45654
1006.448	7.82382
1006.615	1.4669
1006.783	3.45512
1006.95	-7.62855
1007.118	-0.13074
1007.285	-5.60648
1007.452	-5.41079
1007.62	-6.19314
1007.787	-6.65029
1007.954	-7.92229
1008.122	-10.46449
1008.289	-9.16172
1008.456	-4.89074
1008.623	-4.72814
1008.791	-2.96625
1008.958	-7.30251
1009.125	-8.67048
1009.292	-8.80089
1009.459	-6.81249
1009.627	-3.97753
1009.794	0.19265
1009.961	-1.17523
1010.128	2.21455
1010.295	3.19547
1010.462	8.44345
1010.629	1.59812
1010.796	-3.6508
1010.963	-6.97627
1011.13	-0.8481
1011.297	-2.60886
1011.464	2.1499
1011.631	0.97649
1011.798	5.44273
1011.965	-2.80538
1012.132	-1.63179
1012.299	-5.15217
1012.466	-3.06492
1012.633	-3.58614
1012.799	0.58606
1012.966	6.12893
1013.133	-2.21585
1013.3	-4.62793
1013.467	-1.82632
1013.633	-0.52296
1013.8	-0.52296
1013.967	-5.7047
1014.134	-3.25932
1014.3	0.65225
1014.467	1.89099
1014.634	3.03169
1014.8	-1.30347
1014.967	-2.47703
1015.134	3.65093
1015.3	7.40014
1015.467	11.60586
1015.633	7.00965
1015.8	4.36879
1015.966	-0.35844
1016.133	-0.84692
1016.3	5.47979
1016.466	5.18646
1016.632	5.25108
1016.799	0.68336
1016.965	0.58552
1017.132	0.9117
1017.298	-3.58615
1017.465	-6.97476
1017.631	-6.45319
1017.797	-2.21496
1017.964	3.71592
1018.13	0.65164
1018.296	2.83517
1018.463	-0.09844
1018.629	8.86721
1018.795	4.53217
1018.961	3.19633
1019.128	-2.5095
1019.294	-1.98786
1019.46	4.36842
1019.626	0.6195
1019.792	2.93358
1019.959	3.19539
1020.125	6.65099
1020.291	5.54365
1020.457	4.14012
1020.623	-1.53409
1020.789	-2.25164
1020.955	-6.39078
1021.121	3.09549
1021.287	-2.02296
1021.453	-3.0995
1021.619	-1.53198
1021.785	-1.79246
1021.951	0.22897
1022.117	-5.18319
1022.283	-1.66243
1022.449	1.53268
1022.615	-2.73648
1022.781	-0.74863
1022.946	-6.74659
1023.112	-5.2141
1023.278	-6.9415
1023.444	-6.29001
1023.61	-1.79251
1023.775	4.69262
1023.941	4.69182
1024.107	5.08234
1024.273	4.10813
1024.438	7.4013
1024.604	5.02225
1024.77	-7.13651
1024.935	-10.78857
1025.101	-8.11577
1025.267	0.87902
1025.432	8.15068
1025.598	0.88133
1025.763	-5.14988
1025.929	-9.48659
1026.095	-5.11862
1026.26	-4.85889
1026.426	-4.53289
1026.591	-2.90336
1026.757	0.65177
1026.922	-0.26101
1027.087	-3.19481
1027.253	-8.08552
1027.418	-4.044
1027.584	-4.53344
1027.749	1.98708
1027.914	3.39144
1028.08	10.43344
1028.245	4.95743
1028.41	4.89076
1028.576	-0.68374
1028.741	6.12847
1028.906	-2.90289
1029.072	-4.43496
1029.237	-6.16236
1029.402	-1.14141
1029.567	2.44448
1029.732	2.05341
1029.898	6.45413
1030.063	0.292
1030.228	-3.35805
1030.393	-15.06154
1030.558	-8.86665
1030.723	-4.49967
1030.888	-4.27269
1031.053	-1.27389
1031.218	-4.56574
1031.383	2.38002
1031.548	-2.44475
1031.713	-0.58701
1031.878	-0.84776
1032.043	-1.72729
1032.208	8.21603
1032.373	8.21599
1032.538	9.55211
1032.703	-6.2578
1032.868	-0.45263
1033.033	-3.32045
1033.198	0.55757
1033.362	-2.02064
1033.527	-1.33613
1033.692	-0.13008
1033.857	-6.32326
1034.021	-1.46724
1034.186	-0.03277
1034.351	1.988
1034.516	3.12868
1034.68	1.92262
1034.845	0.09758
1035.01	0.29468
1035.174	0.75092
1035.339	5.21601
1035.504	3.78029
1035.668	6.84557
1035.833	2.64055
1035.997	-2.18386
1036.162	0.22889
1036.326	-2.47728
1036.491	1.43447
1036.655	0.22563
1036.82	10.4611
1036.984	7.85383
1037.149	-1.46833
1037.313	-7.23683
1037.478	-11.21348
1037.642	-1.0745
1037.807	1.30444
1037.971	4.9229
1038.135	1.6951
1038.3	-0.58606
1038.464	1.69552
1038.628	-2.93247
1038.792	1.24078
1038.957	0.78416
1039.121	-0.35827
1039.285	-7.72632
1039.449	-7.95444
1039.614	-0.68453
1039.778	-5.27841
1039.942	-7.78806
1040.106	-11.27606
1040.27	-4.56312
1040.434	-1.49917
1040.599	5.99933
1040.763	11.47706
1040.927	9.58585
1041.091	4.69506
1041.255	1.43377
1041.419	3.06407
1041.583	-0.26058
1041.747	-3.12913
1041.911	-7.3671
1042.075	-5.99827
1042.239	-1.37045
1042.403	2.37858
1042.567	5.63784
1042.731	3.22669
1042.894	5.40957
1043.058	-1.01312
1043.222	-8.47645
1043.386	-15.32111
1043.55	-14.92801
1043.714	-1.33583
1043.877	3.52153
1044.041	3.521
1044.205	0.61984
1044.369	1.72862
1044.532	0.91434
1044.696	-2.11771
1044.86	-8.04953
1045.023	-10.56015
1045.187	-13.0374
1045.351	-2.67192
1045.514	5.05352
1045.678	4.53085
1045.841	-1.64778
