Data from H2O_Subt9__8__00048.txt Node

Date: Tue Nov 04 10:20:33 EST 2025
User: brett
Spectrometer: USB4F03499
Trigger mode: 4
Integration Time (sec): 3.000000E-2
Scans to average: 15
Electric dark correction enabled: true
Nonlinearity correction enabled: true
Boxcar width: 1
XAxis mode: Wavelengths
Number of Pixels in Spectrum: 3648
>>>>>Begin Spectral Data<<<<<
345.386	0.15493
345.605	0.15493
345.824	2.14536
346.044	-2.87848
346.263	-6.07297
346.482	-2.16562
346.701	4.16254
346.92	10.84475
347.139	5.95729
347.358	3.77349
347.577	2.79682
347.796	0.71058
348.015	0.38357
348.234	-7.54085
348.453	-7.63828
348.672	-8.32284
348.891	-8.94026
349.11	1.13035
349.329	4.32512
349.548	10.7143
349.767	11.95651
349.986	16.94207
350.205	22.32199
350.424	17.10619
350.643	18.31398
350.862	8.47109
351.08	5.11146
351.299	3.35022
351.518	14.10284
351.737	16.09022
351.956	19.96657
352.174	21.00956
352.393	20.68515
352.612	17.65437
352.831	19.4177
353.049	25.99868
353.268	24.5658
353.487	24.76118
353.705	23.81714
353.924	29.32175
354.143	29.25352
354.361	29.02475
354.58	26.87845
354.798	28.50435
355.017	31.07863
355.236	26.97235
355.454	19.48003
355.673	21.26707
355.891	28.88832
356.11	35.17651
356.328	36.48201
356.547	35.24446
356.765	38.40343
356.984	37.42723
357.202	31.9881
357.42	30.58655
357.639	32.69708
357.857	39.92413
358.076	45.71908
358.294	50.48187
358.512	54.74917
358.731	53.18549
358.949	50.14742
359.167	47.01595
359.386	47.833
359.604	42.52262
359.822	51.51489
360.04	51.64111
360.259	54.96481
360.477	48.94214
360.695	47.4091
360.913	54.18658
361.131	53.43517
361.35	49.81999
361.568	41.32245
361.786	42.42143
362.004	46.76089
362.222	51.38067
362.44	47.87656
362.658	53.59329
362.876	50.53338
363.094	54.18005
363.312	51.48954
363.53	50.44672
363.749	47.51283
363.967	42.04285
364.184	36.3122
364.402	38.33574
364.62	41.33142
364.838	47.94272
365.056	40.18525
365.274	34.35348
365.492	22.76043
365.71	23.86777
365.928	23.25248
366.146	28.98454
366.364	29.02263
366.581	29.24954
366.799	31.30606
367.017	31.08071
367.235	26.97684
367.453	23.5855
367.67	20.00043
367.888	17.52373
368.106	16.15047
368.323	15.30101
368.541	10.25032
368.759	13.57939
368.977	17.48982
369.194	31.37137
369.412	31.76237
369.629	33.1556
369.847	23.51014
370.065	22.82685
370.282	19.24931
370.5	24.91803
370.717	25.468
370.935	23.61147
371.152	21.88459
371.37	20.7453
371.588	21.88575
371.805	25.14554
372.022	22.53851
372.24	29.15064
372.457	23.34961
372.675	36.25625
372.892	33.02877
373.11	35.99311
373.327	28.10886
373.544	30.81506
373.762	31.72677
373.979	29.96321
374.196	28.3668
374.414	30.45259
374.631	34.36374
374.848	37.19423
375.066	42.40456
375.283	39.47201
375.5	38.49653
375.717	37.84779
375.935	37.87882
376.152	38.85092
376.369	36.08091
376.586	37.60723
376.803	38.06968
377.02	42.20484
377.238	44.81649
377.455	45.10329
377.672	46.69965
377.889	40.25042
378.106	41.82215
378.323	35.50788
378.54	40.94177
378.757	38.81955
378.974	41.09525
379.191	44.77975
379.408	42.43718
379.625	36.92933
379.842	33.54776
380.059	41.26448
380.276	50.09426
380.493	47.96857
380.71	42.98511
380.927	36.79231
381.143	43.961
381.36	39.46562
381.577	51.61577
381.794	44.21859
382.011	46.88647
382.228	41.82963
382.444	47.88725
382.661	52.51823
382.878	48.55745
383.095	44.42243
383.311	43.5759
383.528	46.3124
383.745	47.91113
383.962	50.41721
384.178	41.03663
384.395	41.42578
384.612	41.58154
384.828	48.84136
385.045	46.65697
385.261	42.39845
385.478	43.34316
385.695	36.99441
385.911	34.09481
386.128	30.87504
386.344	36.93542
386.561	39.96329
386.777	42.27189
386.994	45.16832
387.21	48.55553
387.427	48.36347
387.643	48.88681
387.86	51.71782
388.076	58.36107
388.292	54.93146
388.509	49.04247
388.725	41.83702
388.942	41.4227
389.158	34.19045
389.374	29.56914
389.591	31.52218
389.807	39.17348
390.023	49.43447
390.239	46.27902
390.456	41.39264
390.672	34.03651
390.888	36.14514
391.104	40.15254
391.321	39.46726
391.537	41.45837
391.753	38.49174
391.969	33.50468
392.185	34.87289
392.401	39.6997
392.618	52.62931
392.834	48.36184
393.05	46.40345
393.266	42.71775
393.482	43.33448
393.698	39.06931
393.914	39.07357
394.13	45.75387
394.346	48.9443
394.562	48.00591
394.778	42.7268
394.994	43.7067
395.21	43.89411
395.426	46.24229
395.642	49.23978
395.858	46.28058
396.073	41.3954
396.289	40.51429
396.505	45.6879
396.721	52.91845
396.937	49.30403
397.153	46.60328
397.369	43.96882
397.584	42.73145
397.8	42.1086
398.016	38.39006
398.232	42.4881
398.447	41.03356
398.663	37.32486
398.879	32.70526
399.094	34.13158
399.31	45.39
399.526	47.83023
399.741	47.63815
399.957	41.81884
400.173	40.03042
400.388	42.7005
400.604	39.50361
400.82	39.40438
401.035	37.38606
401.251	35.40322
401.466	41.88986
401.682	36.97003
401.897	40.28976
402.113	33.54568
402.328	38.59558
402.544	37.48803
402.759	36.31438
402.974	33.80251
403.19	39.2463
403.405	37.65017
403.621	28.53062
403.836	25.46783
404.051	30.5533
404.267	39.96924
404.482	39.4758
404.697	37.54991
404.913	31.42722
405.128	30.45235
405.343	32.27974
405.559	37.65352
405.774	41.65911
405.989	43.5409
406.204	45.20288
406.42	44.7474
406.635	48.59171
406.85	49.20501
407.065	46.664
407.28	43.5735
407.495	44.65385
407.71	43.70898
407.926	40.06272
408.141	37.22406
408.356	37.58312
408.571	39.17678
408.786	42.50077
409.001	46.15099
409.216	46.77165
409.431	42.50475
409.646	42.21326
409.861	39.6343
410.076	45.01298
410.291	40.22238
410.506	40.62083
410.721	41.46148
410.936	49.21391
411.15	48.19891
411.365	40.80567
411.58	40.54404
411.795	53.37111
412.01	58.03064
412.225	63.99148
412.439	57.74237
412.654	64.02261
412.869	56.30468
413.084	52.36678
413.299	49.21459
413.513	45.7613
413.728	46.9587
413.943	42.49363
414.157	45.64506
414.372	46.13367
414.587	46.26341
414.801	48.34566
415.016	46.00768
415.231	51.6783
415.445	44.74761
415.66	43.28225
415.874	42.30015
416.089	41.48972
416.304	44.84175
416.518	46.86731
416.733	49.04689
416.947	42.99049
417.162	31.19664
417.376	32.03838
417.59	36.4026
417.805	40.34685
418.019	42.0421
418.234	45.62792
418.448	50.57284
418.663	56.99741
418.877	62.39718
419.091	59.56239
419.306	52.42536
419.52	45.6866
419.734	48.35675
419.949	47.41255
420.163	45.8531
420.377	40.58083
420.591	41.03194
420.806	37.77215
421.02	41.81024
421.234	43.4049
421.448	44.90542
421.663	43.11984
421.877	42.50815
422.091	42.89717
422.305	39.63708
422.519	34.7841
422.733	37.84393
422.947	36.41219
423.161	32.43733
423.376	34.97445
423.59	42.268
423.804	42.36482
424.018	37.64022
424.232	36.13765
424.446	41.73974
424.66	47.90523
424.874	43.713
425.088	37.51966
425.302	34.35685
425.515	37.01856
425.729	43.99613
425.943	39.86153
426.157	35.53013
426.371	39.6878
426.585	40.17023
426.799	49.61922
427.013	51.67508
427.226	51.87672
427.44	46.30816
427.654	37.74437
427.868	37.93753
428.081	33.99597
428.295	37.81093
428.509	36.15148
428.723	38.13419
428.936	36.14949
429.15	29.92632
429.364	31.1702
429.577	31.9502
429.791	40.74214
430.005	40.31756
430.218	43.67452
430.432	43.41583
430.645	38.36611
430.859	35.00925
431.073	32.50307
431.286	41.17205
431.5	40.0318
431.713	38.2748
431.927	35.24509
432.14	34.26869
432.354	35.47505
432.567	34.26861
432.781	29.28366
432.994	27.35783
433.207	29.54179
433.421	35.30729
433.634	36.96857
433.848	35.59624
434.061	33.28215
434.274	32.63308
434.488	32.5321
434.701	35.33361
434.914	35.85389
435.127	38.39586
435.341	35.3358
435.554	37.71024
435.767	39.50591
435.98	43.3796
436.194	45.73006
436.407	44.13498
436.62	43.78202
436.833	41.2731
437.046	40.20007
437.259	38.52967
437.473	39.05395
437.686	41.0014
437.899	43.38134
438.112	44.84381
438.325	41.5223
438.538	43.08885
438.751	48.00959
438.964	52.99487
439.177	48.6926
439.39	48.19457
439.603	48.81543
439.816	51.94254
440.029	49.75617
440.242	50.29925
440.455	56.51963
440.668	57.21171
440.881	58.2937
441.094	55.06965
441.306	56.89331
441.519	61.5101
441.732	62.8431
441.945	63.84394
442.158	58.27709
442.37	58.54505
442.583	63.15094
442.796	61.32592
443.009	58.58398
443.222	54.60224
443.434	58.2524
443.647	56.52417
443.86	56.32759
444.072	53.88846
444.285	55.41629
444.498	54.57348
444.71	53.33785
444.923	50.44465
445.136	45.52431
445.348	45.30074
445.561	47.78271
445.773	47.95021
445.986	51.82042
446.198	52.27695
446.411	55.33846
446.623	50.06159
446.836	49.05363
447.048	41.10421
447.261	39.3746
447.473	36.10635
447.686	40.11141
447.898	39.07198
448.11	54.29293
448.323	56.08503
448.535	52.53396
448.748	39.33731
448.96	32.9215
449.172	39.8906
449.385	44.9997
449.597	46.27208
449.809	40.47754
450.021	38.39437
450.234	46.20057
450.446	51.01581
450.658	48.74711
450.87	46.17504
451.083	42.52819
451.295	47.49584
451.507	48.67577
451.719	52.22854
451.931	50.20791
452.143	53.49945
452.356	56.49368
452.568	65.47132
452.78	65.56507
452.992	68.74943
453.204	57.75688
453.416	57.94449
453.628	56.35926
453.84	65.53451
454.052	71.72367
454.264	77.6998
454.476	79.82044
454.688	80.53309
454.9	80.02043
455.112	71.2282
455.324	64.24153
455.536	65.12072
455.747	71.84983
455.959	77.43143
456.171	80.19498
456.383	76.26118
456.595	76.20052
456.807	72.26856
457.018	77.34913
457.23	74.54511
457.442	74.37194
457.654	67.99293
457.865	61.90599
458.077	59.17907
458.289	64.3887
458.501	73.22413
458.712	80.5534
458.924	77.75956
459.136	77.13167
459.347	66.19079
459.559	64.82596
459.77	58.2584
459.982	62.2202
460.194	58.95957
460.405	60.75108
460.617	57.3769
460.828	57.5137
461.04	50.93071
461.251	54.24928
461.463	53.26757
461.674	56.3885
461.886	44.92692
462.097	42.64931
462.309	45.46343
462.52	55.23909
462.731	56.83597
462.943	49.47906
463.154	44.64723
463.366	48.55906
463.577	45.09945
463.788	48.37203
464	41.49471
464.211	50.64884
464.422	49.50542
464.634	54.39235
464.845	50.97022
465.056	53.92868
465.267	51.65221
465.478	57.19516
465.69	51.29809
465.901	49.18033
466.112	46.99487
466.323	45.82631
466.534	52.52259
466.745	52.12943
466.957	48.64407
467.168	45.07124
467.379	47.38944
467.59	51.94858
467.801	53.21379
468.012	47.2786
468.223	47.50813
468.434	41.35345
468.645	42.74907
468.856	42.13011
469.067	43.63158
469.278	38.9528
469.489	37.35603
469.7	37.51895
469.911	46.01174
470.122	58.15803
470.333	69.33584
470.543	64.19105
470.754	59.60012
470.965	48.74952
471.176	53.3383
471.387	51.51333
471.598	58.70912
471.808	64.06303
472.019	60.903
472.23	56.86414
472.441	53.30574
472.651	56.99004
472.862	61.15137
473.073	60.56641
473.283	58.60874
473.494	49.95523
473.705	52.32566
473.915	54.55968
474.126	60.80278
474.337	55.76393
474.547	53.16985
474.758	56.8856
474.968	56.84838
475.179	58.63183
475.389	59.43466
475.6	58.32184
475.81	66.24223
476.021	67.56201
476.231	70.53204
476.442	64.57486
476.652	61.28176
476.863	58.55151
477.073	55.52139
477.284	56.98543
477.494	65.76439
477.704	68.23857
477.915	60.62104
478.125	62.2883
478.335	61.07918
478.546	69.12046
478.756	57.62161
478.966	64.5273
479.177	64.19925
479.387	71.27052
479.597	72.41092
479.807	75.79876
480.018	67.69086
480.228	63.00547
480.438	60.10554
480.648	69.49791
480.858	71.34043
481.068	70.25384
481.279	69.74185
481.489	73.78977
481.699	75.90999
481.909	82.21862
482.119	88.6388
482.329	97.41128
482.539	102.25461
482.749	97.50941
482.959	105.93395
483.169	116.67836
483.379	134.96264
483.589	139.08376
483.799	143.58043
484.009	146.74788
484.219	153.5365
484.429	164.08255
484.639	172.87633
484.849	183.89287
485.059	179.13828
485.268	179.78672
485.478	174.6539
485.688	182.61726
485.898	186.62715
486.108	196.39634
486.317	203.66349
486.527	218.45295
486.737	233.35135
486.947	246.63651
487.156	260.16201
487.366	260.72464
487.576	274.3918
487.785	274.52786
487.995	285.28876
488.205	285.71677
488.414	283.80237
488.624	290.97987
488.834	289.24503
489.043	296.9696
489.253	296.69914
489.462	295.84974
489.672	295.65381
489.882	290.6402
490.091	297.53778
490.301	296.74697
490.51	304.1543
490.72	300.74681
490.929	299.55951
491.138	288.88583
491.348	288.03577
491.557	279.13606
491.767	277.19986
491.976	265.03885
492.185	257.97374
492.395	252.99016
492.604	257.57984
492.813	261.22477
493.023	253.44078
493.232	242.5758
493.441	235.13189
493.651	234.87442
493.86	232.21882
494.069	231.67365
494.278	229.44929
494.488	218.62242
494.697	208.77667
494.906	195.82342
495.115	189.90622
495.324	187.82159
495.533	183.3257
495.743	181.62334
495.952	175.29233
496.161	170.48905
496.37	166.69295
496.579	159.65831
496.788	154.45804
496.997	148.60288
497.206	140.0185
497.415	137.56791
497.624	128.46435
497.833	117.97014
498.042	108.05328
498.251	96.65725
498.46	98.71259
498.669	94.4933
498.878	99.08984
499.087	96.85758
499.296	97.70275
499.504	93.57046
499.713	92.16134
499.922	92.74831
500.131	90.32661
500.34	87.71383
500.549	86.64015
500.757	89.00097
500.966	90.37681
501.175	87.70403
501.384	91.71997
501.592	90.58843
501.801	96.24335
502.01	93.3566
502.218	99.86314
502.427	97.88894
502.636	99.16793
502.844	97.43868
503.053	98.58136
503.262	99.38748
503.47	104.51775
503.679	101.53844
503.887	100.0373
504.096	102.77683
504.304	105.8543
504.513	104.32718
504.721	97.51184
504.93	98.25585
505.138	101.53188
505.347	102.46179
505.555	97.64405
505.764	91.28263
505.972	85.78639
506.18	87.22542
506.389	88.57745
506.597	88.5825
506.806	90.75058
507.014	97.08475
507.222	101.70171
507.431	96.98943
507.639	89.72911
507.847	84.84092
508.055	89.37254
508.264	94.73283
508.472	97.72198
508.68	99.08807
508.888	95.73743
509.096	97.52276
509.305	98.52388
509.513	106.39992
509.721	102.10295
509.929	97.42666
510.137	93.61301
510.345	97.0469
510.553	99.44755
510.762	96.98386
510.97	99.22208
511.178	98.57053
511.386	101.97367
511.594	93.57887
511.802	87.48844
512.01	81.4577
512.218	85.82131
512.426	91.60072
512.634	98.51617
512.842	99.71776
513.049	99.22066
513.257	97.64146
513.465	93.47395
513.673	93.24531
513.881	96.52955
514.089	99.68683
514.297	103.35382
514.504	103.84338
514.712	96.60411
514.92	90.49062
515.128	81.23193
515.336	91.16428
515.543	94.54505
515.751	103.87382
515.959	105.05354
516.166	109.45705
516.374	109.39249
516.582	105.24722
516.789	106.83457
516.997	109.93735
517.205	114.36865
517.412	112.53584
517.62	108.78443
517.827	109.19481
518.035	109.42396
518.243	117.72365
518.45	122.89135
518.658	130.7108
518.865	137.42114
519.073	141.424
519.28	154.12072
519.488	154.58407
519.695	169.63405
519.902	173.96699
520.11	188.73874
520.317	200.63513
520.525	206.54496
520.732	217.94698
520.939	222.38156
521.147	235.71393
521.354	239.34074
521.561	244.50136
521.769	240.7706
521.976	243.03179
522.183	242.74609
522.391	249.92282
522.598	255.74089
522.805	255.47688
523.012	246.29308
523.219	242.52431
523.427	238.21711
523.634	242.8248
523.841	236.91405
524.048	243.59163
524.255	237.88845
524.462	234.31441
524.669	226.96175
524.877	234.11579
525.084	234.15964
525.291	237.94904
525.498	236.93647
525.705	240.449
525.912	232.49131
526.119	230.29957
526.326	217.64089
526.533	217.97227
526.74	212.36407
526.947	214.07461
527.153	214.70432
527.36	204.66372
527.567	203.0275
527.774	194.94631
527.981	196.73381
528.188	183.97711
528.395	177.02741
528.602	161.75633
528.808	157.31665
529.015	151.33861
529.222	147.27702
529.429	142.24435
529.635	124.49207
529.842	123.16215
530.049	115.78406
530.256	117.58857
530.462	111.784
530.669	102.16258
530.876	96.37221
531.082	86.1306
531.289	86.86151
531.495	92.79255
531.702	91.49303
531.909	91.74539
532.115	81.12515
532.322	79.01474
532.528	78.10361
532.735	78.79849
532.941	81.01234
533.148	80.66462
533.354	81.56551
533.561	84.78811
533.767	82.89672
533.974	82.585
534.18	78.63968
534.387	83.91671
534.593	80.87516
534.799	81.75846
535.006	81.26447
535.212	85.27425
535.418	93.19157
535.625	89.745
535.831	94.65236
536.037	88.29237
536.244	85.97297
536.45	85.84452
536.656	82.63085
536.862	85.15103
537.068	78.28799
537.275	83.90771
537.481	87.99016
537.687	90.63131
537.893	88.52478
538.099	85.21449
538.305	88.49686
538.512	89.05486
538.718	82.21806
538.924	80.71909
539.13	78.6722
539.336	89.1492
539.542	85.46997
539.748	90.70294
539.954	87.474
540.16	90.27755
540.366	86.78158
540.572	87.77642
540.778	84.39246
540.984	84.84256
541.19	82.89044
541.396	84.73562
541.602	80.81099
541.807	84.19096
542.013	88.6224
542.219	90.80191
542.425	88.71285
542.631	88.87499
542.837	89.52093
543.042	89.9254
543.248	85.83063
543.454	89.83484
543.66	86.21758
543.865	86.16056
544.071	83.05117
544.277	85.24002
544.483	84.97062
544.688	83.4395
544.894	77.5789
545.1	76.76824
545.305	77.57116
545.511	79.09183
545.716	78.50482
545.922	75.16011
546.128	80.37113
546.333	81.83712
546.539	84.11892
546.744	80.8576
546.95	82.64063
547.155	84.06723
547.361	79.83008
547.566	75.90195
547.772	68.80676
547.977	68.43192
548.182	66.83145
548.388	72.17491
548.593	77.37233
548.799	81.57675
549.004	78.77673
549.209	80.98613
549.415	73.69396
549.62	79.91895
549.825	76.99271
550.031	90.26864
550.236	84.53661
550.441	83.3822
550.646	75.1831
550.852	73.13621
551.057	78.72356
551.262	77.05408
551.467	76.53184
551.672	59.53835
551.878	55.81152
552.083	54.9005
552.288	62.25474
552.493	65.36692
552.698	67.87079
552.903	69.44449
553.108	63.81012
553.313	64.47202
553.518	65.71035
553.723	70.54508
553.928	71.15309
554.133	66.90985
554.338	65.70293
554.543	65.59665
554.748	71.19054
554.953	76.83214
555.158	83.54212
555.363	81.19896
555.568	75.03266
555.773	66.89421
555.978	62.99333
556.182	61.93037
556.387	63.32681
556.592	68.69862
556.797	69.43218
557.002	65.52453
557.206	70.37736
557.411	77.15855
557.616	88.16266
557.821	86.21056
558.025	84.23891
558.23	81.5765
558.435	82.99224
558.64	86.41381
558.844	80.70161
559.049	79.4129
559.253	78.62988
559.458	84.68096
559.663	90.19449
559.867	94.22212
560.072	98.54075
560.276	103.54262
560.481	106.88603
560.685	114.66624
560.89	123.39414
561.094	134.34314
561.299	136.97496
561.503	142.36474
561.708	144.1383
561.912	151.10421
562.117	154.43864
562.321	164.42273
562.525	173.60617
562.73	174.96916
562.934	173.63013
563.139	175.27143
563.343	180.21479
563.547	183.82619
563.752	183.30299
563.956	183.22755
564.16	184.47718
564.364	181.96326
564.569	181.75929
564.773	180.09863
564.977	181.06343
565.181	185.46185
565.385	183.97866
565.59	180.41436
565.794	174.57775
565.998	167.38868
566.202	167.3231
566.406	170.85396
566.61	166.0088
566.814	161.93446
567.018	157.95262
567.222	165.76444
567.426	171.68832
567.63	167.2937
567.834	165.30715
568.038	159.03898
568.242	158.31693
568.446	157.68273
568.65	158.85276
568.854	154.04077
569.058	153.46922
569.262	147.74109
569.466	146.82693
569.67	137.19498
569.874	136.77066
570.078	131.37292
570.281	130.8613
570.485	123.0271
570.689	121.68576
570.893	121.40351
571.097	123.13204
571.3	124.36694
571.504	114.92987
571.708	110.84558
571.912	103.08028
572.115	103.80456
572.319	102.14884
572.523	98.89465
572.726	102.76072
572.93	93.95712
573.133	91.73556
573.337	86.893
573.541	89.03008
573.744	84.81472
573.948	82.47991
574.151	79.77095
574.355	79.66348
574.558	84.05891
574.762	82.78941
574.965	92.69285
575.169	90.85768
575.372	92.13484
575.576	86.92571
575.779	82.56706
575.983	85.65267
576.186	77.93586
576.389	87.2103
576.593	88.62989
576.796	96.20847
577	89.87278
577.203	90.07793
577.406	87.83755
577.609	91.72994
577.813	94.79261
578.016	98.92372
578.219	89.3085
578.423	88.68136
578.626	86.46776
578.829	90.3326
579.032	86.56258
579.235	84.15339
579.438	87.80132
579.642	79.90332
579.845	81.56041
580.048	75.91864
580.251	85.54031
580.454	84.40932
580.657	88.49471
580.86	84.18802
581.063	84.42487
581.266	85.29594
581.469	83.12623
581.672	86.70316
581.875	79.95552
582.078	83.73435
582.281	83.01444
582.484	92.59928
582.687	92.99299
582.89	89.73904
583.093	94.96778
583.296	100.79023
583.499	100.85859
583.702	92.89098
583.904	95.3755
584.107	105.05862
584.31	104.10503
584.513	99.65903
584.716	93.15646
584.918	99.21609
585.121	99.60295
585.324	104.37987
585.527	93.96319
585.729	94.90698
585.932	90.30025
586.135	99.79655
586.337	105.79825
586.54	104.61467
586.743	102.56189
586.945	90.64872
587.148	92.28009
587.35	88.12291
587.553	96.82257
587.755	96.47657
587.958	103.21251
588.161	101.11771
588.363	99.61672
588.566	97.2596
588.768	95.86717
588.971	95.24531
589.173	91.41673
589.375	89.97139
589.578	90.03212
589.78	91.78089
589.983	88.59603
590.185	92.37444
590.387	90.40274
590.59	97.62304
590.792	95.7676
590.994	94.05007
591.197	93.23689
591.399	92.44935
591.601	96.70583
591.803	95.24329
592.006	93.39042
592.208	87.08103
592.41	83.00358
592.612	84.96542
592.815	88.1578
593.017	86.81386
593.219	77.11629
593.421	78.50734
593.623	76.41213
593.825	83.85174
594.027	85.67998
594.229	84.87292
594.432	87.4851
594.634	84.61705
594.836	86.73317
595.038	91.84222
595.24	99.90737
595.442	100.6463
595.644	96.71242
595.846	85.76967
596.048	91.22526
596.249	92.48745
596.451	94.16503
596.653	91.57346
596.855	91.64507
597.057	98.14032
597.259	94.50822
597.461	90.03054
597.663	86.29832
597.864	92.18701
598.066	92.0762
598.268	96.43782
598.47	99.69058
598.671	104.14682
598.873	96.36529
599.075	87.99358
599.277	88.5181
599.478	93.64617
599.68	100.58795
599.882	98.99524
600.083	100.98465
600.285	98.79478
600.487	98.46373
600.688	95.31819
600.89	96.63185
601.091	98.29235
601.293	101.64673
601.494	103.46362
601.696	101.31402
601.898	97.70796
602.099	94.64783
602.301	96.07782
602.502	94.33909
602.703	95.70629
602.905	93.38726
603.106	97.58195
603.308	95.30768
603.509	99.53591
603.711	102.37384
603.912	104.63778
604.113	110.03987
604.315	113.20839
604.516	118.35334
604.717	117.81138
604.919	113.59779
605.12	116.03759
605.321	115.47572
605.522	116.98602
605.724	112.69918
605.925	115.88993
606.126	117.12435
606.327	118.48477
606.528	114.0406
606.729	112.69974
606.931	119.72914
607.132	128.68593
607.333	137.09405
607.534	136.64157
607.735	137.89838
607.936	139.56361
608.137	147.27708
608.338	149.96648
608.539	150.08117
608.74	143.15127
608.941	145.08232
609.142	148.19984
609.343	152.33225
609.544	154.26208
609.745	151.44777
609.946	149.60378
610.147	148.30916
610.348	155.53579
610.549	159.49277
610.75	165.77036
610.95	162.01541
611.151	163.23803
611.352	158.69771
611.553	159.71775
611.754	162.62871
611.954	157.86159
612.155	157.10227
612.356	153.71782
612.557	155.13328
612.757	155.03618
612.958	150.92238
613.159	148.73385
613.359	146.15735
613.56	138.08568
613.761	133.65372
613.961	131.62759
614.162	138.66467
614.362	142.92
614.563	143.0322
614.764	139.31085
614.964	131.01914
615.165	123.44479
615.365	121.71321
615.566	123.72239
615.766	122.62144
615.967	119.50614
616.167	117.4025
616.368	116.64133
616.568	113.392
616.768	113.87794
616.969	115.63599
617.169	110.26979
617.37	101.55904
617.57	94.85627
617.77	95.51413
617.971	98.69807
618.171	94.35606
618.371	95.26343
618.571	96.06317
618.772	98.86463
618.972	99.38867
619.172	94.04171
619.372	91.78179
619.573	91.19266
619.773	86.45526
619.973	85.8582
620.173	80.26858
620.373	77.26504
620.573	73.68637
620.774	69.94826
620.974	70.49609
621.174	71.08373
621.374	73.30516
621.574	72.55706
621.774	78.03483
621.974	78.99811
622.174	79.36677
622.374	71.57912
622.574	69.86749
622.774	72.20345
622.974	69.28411
623.174	67.55352
623.374	65.80364
623.574	72.27351
623.774	75.14162
623.973	79.47733
624.173	74.5906
624.373	65.04067
624.573	59.60137
624.773	57.42619
624.973	61.14613
625.172	61.40596
625.372	66.88028
625.572	73.67224
625.772	68.43068
625.971	71.83734
626.171	60.94204
626.371	61.91957
626.57	59.68442
626.77	59.71832
626.97	61.12179
627.169	49.43098
627.369	55.69112
627.569	56.92639
627.768	61.94248
627.968	65.48804
628.167	64.38126
628.367	66.91782
628.566	53.92488
628.766	46.95702
628.965	45.46606
629.165	53.24082
629.364	56.79134
629.564	59.22378
629.763	58.31312
629.963	60.29464
630.162	58.66894
630.362	60.91243
630.561	64.85634
630.76	62.64693
630.96	60.99826
631.159	61.6787
631.358	61.80632
631.558	64.04899
631.757	57.92982
631.956	57.76223
632.155	55.1887
632.355	56.32558
632.554	59.71834
632.753	65.67507
632.952	65.0212
633.152	60.33239
633.351	55.35428
633.55	58.38733
633.749	65.582
633.948	64.17454
634.147	60.69742
634.346	53.11045
634.545	48.94798
634.744	53.53428
634.944	49.82768
635.143	53.89239
635.342	57.92849
635.541	60.65754
635.74	63.37002
635.939	55.90672
636.138	58.60755
636.336	56.51973
636.535	59.81946
636.734	59.72009
636.933	58.90502
637.132	52.94286
637.331	54.4775
637.53	52.59024
637.729	55.16674
637.928	48.3264
638.126	48.7848
638.325	48.15645
638.524	52.6517
638.723	53.3307
638.921	52.97743
639.12	56.39412
639.319	51.70857
639.518	51.93548
639.716	51.52841
639.915	58.01726
640.114	58.697
640.312	49.49965
640.511	48.15933
640.71	45.72419
640.908	49.2749
641.107	42.98875
641.305	41.13234
641.504	37.74575
641.702	44.18727
641.901	42.06522
642.099	46.00663
642.298	43.07972
642.496	50.51751
642.695	49.89711
642.893	48.79488
643.092	44.51886
643.29	47.9108
643.489	46.76322
643.687	46.51067
643.885	47.03001
644.084	49.63812
644.282	52.43086
644.48	49.59708
644.679	48.71253
644.877	41.41805
645.075	39.2998
645.274	42.21133
645.472	43.34811
645.67	44.68261
645.868	45.91458
646.067	51.35429
646.265	51.19498
646.463	47.05906
646.661	41.97572
646.859	43.66594
647.057	38.35485
647.256	45.95326
647.454	40.12209
647.652	43.99921
647.85	42.23543
648.048	45.27376
648.246	48.46753
648.444	51.20109
648.642	50.67219
648.84	44.1225
649.038	36.46956
649.236	39.14067
649.434	45.84582
649.632	49.43471
649.83	53.24387
650.028	46.31158
650.226	45.82221
650.423	44.0022
650.621	48.1699
650.819	45.72015
651.017	48.75003
651.215	48.32566
651.413	49.66765
651.61	42.46823
651.808	46.0892
652.006	43.64417
652.204	40.77364
652.401	35.36419
652.599	36.37602
652.797	40.97064
652.995	42.95864
653.192	46.37834
653.39	45.69887
653.588	46.89756
653.785	44.25586
653.983	45.32562
654.18	44.57734
654.378	46.20626
654.576	53.10818
654.773	54.63863
654.971	58.09777
655.168	56.37632
655.366	55.91962
655.563	56.1808
655.761	54.77953
655.958	55.91954
656.156	61.24513
656.353	59.15168
656.55	75.73157
656.748	90.49961
656.945	132.42447
657.143	181.80007
657.34	235.35452
657.537	297.55084
657.735	368.196
657.932	469.49659
658.129	568.87363
658.326	666.68659
658.524	768.40187
658.721	872.13963
658.918	976.23099
659.115	1056.13981
659.313	1120.69992
659.51	1179.25789
659.707	1217.96494
659.904	1257.81872
660.101	1277.18422
660.298	1285.99062
660.496	1286.34602
660.693	1283.93824
660.89	1298.55754
661.087	1311.37262
661.284	1318.77727
661.481	1317.27324
661.678	1308.92575
661.875	1291.09065
662.072	1281.55224
662.269	1278.68992
662.466	1283.41122
662.663	1285.46362
662.86	1272.00701
663.057	1252.76532
663.254	1236.42006
663.45	1218.66458
663.647	1213.33181
663.844	1188.37239
664.041	1169.67822
664.238	1151.74761
664.435	1155.75291
664.631	1157.77273
664.828	1152.03111
665.025	1137.9506
665.222	1120.17452
665.419	1096.06774
665.615	1066.33807
665.812	1041.77251
666.009	1006.84366
666.205	949.22758
666.402	890.48981
666.599	845.57873
666.795	815.30253
666.992	790.2651
667.188	769.46393
667.385	748.36917
667.582	725.59352
667.778	704.00282
667.975	684.42355
668.171	651.83691
668.368	612.29161
668.564	570.16289
668.761	528.17347
668.957	482.37362
669.154	429.57437
669.35	376.64661
669.547	326.21557
669.743	271.16084
669.939	210.49596
670.136	153.30869
670.332	113.06141
670.528	90.52672
670.725	70.74249
670.921	57.70321
671.117	45.16957
671.314	45.43454
671.51	47.44771
671.706	48.84603
671.902	47.50347
672.099	42.69241
672.295	43.21388
672.491	43.47912
672.687	41.94222
672.883	41.16312
673.08	36.38043
673.276	35.30733
673.472	35.33711
673.668	39.54191
673.864	39.77101
674.06	39.90593
674.256	42.69218
674.452	39.92351
674.648	37.21813
674.844	30.05807
675.04	36.77084
675.236	36.92832
675.432	39.43163
675.628	43.46485
675.824	49.0036
676.02	55.66153
676.216	50.06031
676.412	47.38721
676.608	42.45966
676.804	45.2934
676.999	50.37877
677.195	47.09318
677.391	41.39135
677.587	43.54113
677.783	49.43708
677.978	48.19793
678.174	48.32208
678.37	46.66047
678.566	50.95737
678.761	43.20728
678.957	40.92059
679.153	43.34245
679.348	46.63092
679.544	52.4008
679.74	49.71999
679.935	48.25966
680.131	46.27701
680.327	53.90324
680.522	54.29578
680.718	44.19429
680.913	39.53802
681.109	37.25809
681.304	48.42851
681.5	44.71209
681.695	47.83615
681.891	42.63194
682.086	52.47261
682.282	45.21972
682.477	35.21574
682.672	25.96314
682.868	26.70643
683.063	38.1736
683.259	38.56257
683.454	40.16085
683.649	36.19065
683.845	36.29431
684.04	36.02762
684.235	34.8892
684.43	30.48739
684.626	30.26396
684.821	26.28235
685.016	30.36915
685.211	34.62781
685.407	32.64166
685.602	28.68699
685.797	25.2381
685.992	34.36061
686.187	38.85685
686.382	37.68763
686.577	30.06618
686.773	26.25568
686.968	19.93471
687.163	29.37543
687.358	31.69247
687.553	34.88641
687.748	29.97399
687.943	27.23065
688.138	27.19569
688.333	20.18923
688.528	17.87742
688.723	17.09816
688.918	23.81061
689.112	25.37576
689.307	29.38497
689.502	25.89964
689.697	25.93245
689.892	23.61656
690.087	27.59148
690.282	25.17743
690.476	23.06071
690.671	20.32283
690.866	20.426
691.061	27.23776
691.255	21.99218
691.45	22.77036
691.645	16.70797
691.84	19.18579
692.034	26.18617
692.229	23.96847
692.424	19.27524
692.618	10.90682
692.813	12.66471
693.007	17.41884
693.202	21.58771
693.397	25.53155
693.591	28.17298
693.786	22.57061
693.98	14.84987
694.175	15.04694
694.369	22.37814
694.564	25.96089
694.758	22.96268
694.953	17.48948
695.147	22.47724
695.342	26.35381
695.536	26.45184
695.73	17.68591
695.925	17.45915
696.119	21.9547
696.313	23.84465
696.508	23.84216
696.702	23.03256
696.896	24.49832
697.091	23.33041
697.285	22.64382
697.479	28.21815
697.673	25.02104
697.868	28.80168
698.062	24.82493
698.256	24.79499
698.45	17.45994
698.644	19.21864
698.839	20.3908
699.033	24.91975
699.227	26.28747
699.421	30.84859
699.615	21.92124
699.809	19.02126
700.003	15.66635
700.197	18.07775
700.391	20.94529
700.585	14.72012
700.779	22.24638
700.973	19.80284
701.167	22.63786
701.361	18.89298
701.555	17.39582
701.749	20.52347
701.943	19.60991
702.137	18.04475
702.331	20.55015
702.525	20.38971
702.718	22.37886
702.912	22.02263
703.106	21.53208
703.3	25.64023
703.494	24.76162
703.687	34.83124
703.881	28.63528
704.075	24.20625
704.269	19.28475
704.462	25.44308
704.656	31.14165
704.85	23.58196
705.043	22.67193
705.237	20.6862
705.431	27.52728
705.624	21.88922
705.818	21.78836
706.012	20.42207
706.205	22.14769
706.399	26.64581
706.592	26.99789
706.786	32.44278
706.979	34.33583
707.173	32.97252
707.366	33.22925
707.56	26.90801
707.753	25.14833
707.947	21.07932
708.14	22.24903
708.333	23.68215
708.527	27.13279
708.72	27.09779
708.914	29.93342
709.107	26.47831
709.3	33.32495
709.494	24.39627
709.687	24.75726
709.88	16.77471
710.073	28.56606
710.267	33.93903
710.46	42.30783
710.653	38.59692
710.846	34.10095
711.04	28.96117
711.233	30.75361
711.426	33.29472
711.619	32.57149
711.812	31.30499
712.005	29.70977
712.198	25.11873
712.391	24.5917
712.585	18.46705
712.778	19.86679
712.971	15.2087
713.164	15.56809
713.357	15.89179
713.55	22.47336
713.743	25.66619
713.936	22.99531
714.129	22.83261
714.322	28.37021
714.514	32.64212
714.707	32.05565
714.9	27.26857
715.093	24.88878
715.286	22.47907
715.479	24.72475
715.672	23.291
715.864	23.80945
716.057	20.45366
716.25	20.15854
716.443	18.43414
716.636	22.28288
716.828	32.87301
717.021	38.70319
717.214	35.7008
717.406	35.47058
717.599	35.44734
717.792	40.4994
717.984	35.77819
718.177	37.13905
718.37	31.66526
718.562	33.58452
718.755	24.06978
718.947	28.30399
719.14	22.571
719.333	26.35007
719.525	27.42582
719.718	34.78331
719.91	39.73588
720.103	36.14921
720.295	35.40139
720.487	31.4583
720.68	34.48902
720.872	27.16278
721.065	22.21101
721.257	19.14818
721.449	24.91778
721.642	33.52081
721.834	30.55852
722.026	32.41264
722.219	34.65957
722.411	37.81685
722.603	34.3311
722.796	33.87332
722.988	35.86494
723.18	40.29366
723.372	31.53202
723.565	29.41133
723.757	33.48162
723.949	38.85463
724.141	43.19013
724.333	32.96254
724.525	36.71294
724.717	34.30172
724.91	39.44794
725.102	29.37701
725.294	31.78866
725.486	27.81682
725.678	31.82416
725.87	27.38901
726.062	27.61498
726.254	27.06249
726.446	23.90473
726.638	18.33466
726.83	16.61072
727.022	17.26104
727.213	26.15386
727.405	30.48297
727.597	31.78343
727.789	28.20493
727.981	23.87248
728.173	32.44295
728.365	33.38497
728.556	35.07563
728.748	32.50012
728.94	31.42596
729.132	31.26894
729.324	29.87203
729.515	32.71128
729.707	35.79943
729.899	38.40322
730.09	39.66603
730.282	39.23925
730.474	34.4204
730.665	32.1087
730.857	35.69967
731.049	45.20949
731.24	44.33139
731.432	40.49092
731.623	37.49095
731.815	44.10188
732.006	41.32928
732.198	36.80209
732.389	26.73617
732.581	31.95159
732.772	29.9355
732.964	30.09965
733.155	23.81035
733.347	23.81128
733.538	31.2722
733.729	39.68092
733.921	37.33529
734.112	31.9942
734.304	27.2978
734.495	25.18066
734.686	22.86494
734.877	20.42573
735.069	21.52989
735.26	26.34875
735.451	23.44459
735.643	26.08793
735.834	24.95097
736.025	30.42125
736.216	33.05519
736.407	36.44152
736.599	34.16985
736.79	27.9838
736.981	20.9158
737.172	25.14825
737.363	28.43567
737.554	29.86933
737.745	31.0108
737.936	28.79667
738.127	31.43585
738.318	19.01979
738.509	18.46608
738.7	17.23019
738.891	21.76088
739.082	23.55252
739.273	19.90169
739.464	24.30017
739.655	23.02967
739.846	22.47517
740.037	23.8093
740.228	19.31364
740.419	23.22314
740.609	19.18128
740.8	24.10255
740.991	17.39097
741.182	11.8202
741.373	18.82419
741.563	24.20028
741.754	28.89344
741.945	28.01583
742.136	27.85415
742.326	26.64982
742.517	26.32144
742.708	22.96396
742.898	26.48137
743.089	20.67995
743.28	21.91511
743.47	16.27811
743.661	20.45486
743.851	25.21925
744.042	30.33519
744.233	30.68766
744.423	28.82719
744.614	30.02698
744.804	28.95741
744.995	31.75519
745.185	31.43827
745.376	22.83251
745.566	23.65145
745.756	20.02945
745.947	30.88061
746.137	26.87395
746.328	20.91323
746.518	17.35936
746.708	16.93625
746.899	20.45487
747.089	23.71916
747.279	23.19437
747.47	31.50764
747.66	26.28951
747.85	23.65051
748.04	15.01122
748.231	18.04379
748.421	22.47608
748.611	31.27762
748.801	31.7978
748.991	30.06958
749.182	19.50841
749.372	14.22851
749.562	13.45118
749.752	21.43136
749.942	22.79889
750.132	21.42615
750.322	16.31379
750.512	11.46027
750.702	12.76463
750.892	15.17633
751.082	20.75067
751.272	22.86971
751.462	26.77702
751.652	32.64262
751.842	32.51165
752.032	28.93066
752.222	23.48563
752.412	22.60224
752.602	22.43939
752.792	25.40682
752.981	27.16481
753.171	28.17649
753.361	27.55571
753.551	25.67118
753.741	26.38367
753.93	29.02487
754.12	30.22815
754.31	31.04639
754.5	32.01878
754.689	29.93769
754.879	27.26335
755.069	25.28123
755.258	28.24286
755.448	24.04064
755.638	29.51086
755.827	24.98267
756.017	29.96758
756.206	22.0561
756.396	23.97941
756.586	26.32789
756.775	26.1906
756.965	26.64347
757.154	23.57702
757.344	17.32356
757.533	17.97819
757.723	15.53514
757.912	17.2296
758.101	19.70735
758.291	18.63262
758.48	22.15204
758.67	19.41386
758.859	26.71046
759.048	28.92425
759.238	24.59075
759.427	12.76522
759.616	6.57545
759.806	9.05069
759.995	18.50346
760.184	21.24138
760.373	21.8608
760.563	17.3282
760.752	21.33651
760.941	23.03035
761.13	24.36697
761.319	19.9987
761.509	25.01676
761.698	27.45854
761.887	32.18622
762.076	25.89643
762.265	29.41938
762.454	24.82165
762.643	28.01637
762.832	25.66881
763.021	28.5049
763.21	24.33235
763.399	25.30896
763.588	27.23109
763.777	27.3949
763.966	28.69618
764.155	21.56001
764.344	23.28687
764.533	23.05946
764.722	24.26329
764.911	27.52301
765.1	22.14686
765.288	28.98856
765.477	22.47017
765.666	29.83604
765.855	27.39451
766.044	34.79328
766.232	34.75921
766.421	34.17229
766.61	37.06872
766.799	35.63312
766.987	33.77764
767.176	27.13453
767.365	23.06296
767.553	22.43971
767.742	16.73598
767.931	23.61193
768.119	21.46416
768.308	27.95088
768.497	24.62369
768.685	30.09458
768.874	29.04936
769.062	19.08255
769.251	14.78597
769.439	12.27735
769.628	18.2411
769.816	19.02103
770.005	15.95757
770.193	17.65394
770.382	17.29776
770.57	21.11163
770.758	23.32877
770.947	20.62307
771.135	18.27604
771.323	15.56884
771.512	22.77416
771.7	24.27031
771.888	20.71703
772.077	15.56651
772.265	17.91508
772.453	16.35123
772.642	13.09188
772.83	9.54036
773.018	10.3872
773.206	19.51195
773.394	16.54687
773.583	21.17767
773.771	14.88687
773.959	18.86381
774.147	14.06965
774.335	8.66068
774.523	9.79979
774.711	10.58459
774.899	13.38678
775.087	13.61567
775.275	15.53492
775.463	23.91544
775.651	21.21076
775.839	16.65086
776.027	16.58028
776.215	23.32835
776.403	26.4542
776.591	22.12161
776.779	15.07902
776.967	17.5914
777.155	13.67951
777.343	20.17025
777.531	17.65858
777.718	21.05012
777.906	16.51404
778.094	15.21278
778.282	12.63495
778.47	11.59236
778.657	13.25467
778.845	17.2643
779.033	19.87088
779.22	21.52994
779.408	21.53029
779.596	26.48215
779.783	27.94751
779.971	35.7637
780.159	34.62199
780.346	43.77751
780.534	40.6493
780.722	46.77207
780.909	47.45292
781.097	51.48938
781.284	47.12439
781.472	46.14693
781.659	48.53265
781.847	53.70719
782.034	49.49927
782.222	46.59661
782.409	48.28744
782.597	47.67113
782.784	45.15422
782.971	43.76327
783.159	46.20765
783.346	51.65318
783.533	47.74169
783.721	48.52188
783.908	41.12724
784.095	42.0072
784.283	42.33714
784.47	49.95965
784.657	48.55631
784.844	49.24237
785.032	52.4965
785.219	47.12669
785.406	50.48074
785.593	41.8532
785.78	49.9988
785.968	41.46496
786.155	46.79974
786.342	43.37254
786.529	43.2415
786.716	42.07572
786.903	37.7459
787.09	39.6747
787.277	30.84894
787.464	33.84454
787.651	33.80925
787.838	34.91829
788.025	30.59063
788.212	26.74403
788.399	24.23365
788.586	26.54854
788.773	26.55012
788.96	32.35802
789.147	25.87228
789.334	23.1681
789.521	16.64321
789.707	18.53496
789.894	13.22298
790.081	8.98906
790.268	11.20125
790.455	16.4783
790.641	18.59498
790.828	11.8839
791.015	5.92228
791.202	2.99016
791.388	9.7049
791.575	13.03026
791.762	9.80385
791.948	3.90362
792.135	-1.0842
792.322	-0.52975
792.508	0.0905
792.695	5.56653
792.881	7.03293
793.068	6.08744
793.254	7.6521
793.441	10.78022
793.627	15.01673
793.814	9.63873
794	12.24482
794.187	8.79009
794.373	12.96059
794.56	8.1388
794.746	5.27089
794.933	4.9145
795.119	7.8461
795.305	18.76829
795.492	12.05296
795.678	11.89055
795.864	5.23791
796.051	9.99693
796.237	8.69442
796.423	5.95674
796.61	10.45472
796.796	16.22381
796.982	15.6371
797.168	9.41114
797.355	5.2066
797.541	8.36796
797.727	14.72311
797.913	16.25312
798.099	17.16636
798.285	11.98458
798.471	3.6765
798.658	3.77393
798.844	5.92484
799.03	8.66142
799.216	6.50909
799.402	6.14975
799.588	11.36455
799.774	12.73372
799.96	14.36388
800.146	10.42018
800.332	8.43218
800.518	3.21791
800.704	3.9999
800.89	13.61702
801.075	11.66166
801.261	13.39015
801.447	4.32759
801.633	14.23573
801.819	11.72562
802.005	10.84587
802.19	5.72883
802.376	8.01023
802.562	11.95388
802.748	10.1614
802.934	4.16295
803.119	-1.541
803.305	-1.11789
803.491	8.63074
803.676	13.7804
803.862	13.52007
804.048	6.90143
804.233	2.37121
804.419	2.95834
804.605	4.84869
804.79	6.28295
804.976	7.87868
805.161	9.70452
805.347	4.22729
805.532	4.26065
805.718	-1.7698
805.903	10.55063
806.089	11.23482
806.274	15.0488
806.46	6.34754
806.645	4.4573
806.831	7.94542
807.016	11.20458
807.201	13.35653
807.387	6.93465
807.572	4.68606
807.757	-2.22487
807.943	2.56731
808.128	6.05418
808.313	10.09555
808.499	11.43118
808.684	13.06197
808.869	12.37802
809.054	9.51027
809.24	-4.60395
809.425	-0.07219
809.61	-3.07157
809.795	3.25241
809.98	-1.14873
810.165	-0.72514
810.35	1.36064
810.536	3.77226
810.721	6.83577
810.906	6.64036
811.091	7.97611
811.276	9.24862
811.461	3.54542
811.646	-2.58114
811.831	-9.19851
812.016	4.49055
812.201	6.73931
812.386	8.46664
812.571	2.43583
812.756	2.33841
812.941	1.03465
813.125	2.86019
813.31	2.66431
813.495	5.04399
813.68	4.78318
813.865	3.87055
814.05	3.60969
814.234	2.04481
814.419	-7.01706
814.604	-2.81278
814.789	-5.87558
814.973	4.84889
815.158	0.61202
815.343	4.42564
815.528	9.57518
815.712	12.60572
815.897	7.94413
816.081	3.21842
816.266	4.9791
816.451	8.04323
816.635	5.27224
816.82	4.00223
817.004	7.6199
817.189	14.85574
817.374	16.09145
817.558	11.0719
817.743	3.24926
817.927	-0.30177
818.111	7.65065
818.296	16.51642
818.48	17.07097
818.665	12.70419
818.849	5.30532
819.034	3.38183
819.218	5.43621
819.402	8.01221
819.587	7.52331
819.771	0.67739
819.955	-2.19185
820.14	5.04395
820.324	12.01749
820.508	15.83067
820.692	8.92078
820.877	3.83773
821.061	0.25263
821.245	1.68727
821.429	2.86056
821.613	7.71872
821.798	9.96743
821.982	7.62034
822.166	2.46882
822.35	1.91347
822.534	1.94645
822.718	4.39182
822.902	0.48157
823.086	1.78534
823.27	2.66521
823.454	-1.96529
823.638	-5.51856
823.822	-6.39949
824.006	3.05551
824.19	3.05488
824.374	4.78311
824.558	0.12151
824.742	2.66547
824.926	4.13261
825.11	3.74143
825.294	5.50113
825.477	0.08963
825.661	4.98016
825.845	2.30675
826.029	3.77326
826.213	3.93629
826.396	8.95675
826.58	4.55667
826.764	3.67489
826.948	-0.56234
827.131	4.32718
827.315	2.92564
827.499	6.44539
827.682	5.79359
827.866	4.52287
828.05	6.37978
828.233	4.84742
828.417	6.2485
828.6	1.36036
828.784	5.46532
828.967	4.38997
829.151	7.78037
829.335	4.45783
829.518	5.14201
829.701	4.09891
829.885	6.83778
830.068	8.98953
830.252	9.47751
830.435	5.17391
830.619	-2.58398
830.802	-0.23594
830.985	-3.26691
831.169	-3.36436
831.352	-11.28682
831.535	-7.44087
831.719	0.80575
831.902	8.00992
832.085	10.06198
832.269	3.15106
832.452	-2.97661
832.635	-3.13793
832.818	4.7508
833.002	7.78236
833.185	6.576
833.368	5.46939
833.551	3.2532
833.734	0.8408
833.917	-5.64636
834.1	-2.06024
834.284	1.39597
834.467	-2.12604
834.65	-1.99655
834.833	2.95626
835.016	8.85668
835.199	5.53193
835.382	-0.04053
835.565	-0.17094
835.748	2.59957
835.931	7.19491
836.114	11.92194
836.297	7.91316
836.479	3.44734
836.662	4.68732
836.845	7.35984
837.028	14.13977
837.211	6.60838
837.394	11.0744
837.577	5.63148
837.759	9.80336
837.942	5.85868
838.125	2.9575
838.308	2.17554
838.49	5.6928
838.673	7.48571
838.856	10.06176
839.039	7.52272
839.221	5.92556
839.404	5.92316
839.587	8.82406
839.769	7.94387
839.952	2.79495
840.134	5.43747
840.317	5.60039
840.499	8.36997
840.682	-1.50948
840.865	-0.53149
841.047	2.37005
841.23	2.17513
841.412	0.6435
841.595	-4.50598
841.777	-4.34339
841.959	2.4033
842.142	1.49088
842.324	2.95845
842.507	1.8498
842.689	0.25218
842.871	-1.11651
843.054	-9.32942
843.236	-7.04765
843.418	-5.51648
843.601	1.97979
843.783	5.8235
843.965	7.5189
844.147	7.87657
844.33	8.14005
844.512	8.33549
844.694	7.84801
844.876	6.0221
845.059	14.62708
845.241	9.18357
845.423	4.13201
845.605	-9.22978
845.787	-5.18811
845.969	-0.49534
846.151	6.83656
846.333	10.7143
846.515	12.11545
846.697	11.36431
846.879	10.97387
847.061	10.58342
847.243	10.42255
847.425	9.57544
847.607	11.72598
847.789	13.94123
847.971	16.08984
848.153	23.51921
848.335	24.9208
848.517	27.69136
848.699	24.92123
848.881	28.21225
849.062	26.90887
849.244	24.88686
849.426	19.18375
849.608	18.4348
849.789	21.00752
849.971	27.58596
850.153	30.77645
850.335	26.21719
850.516	22.34467
850.698	25.96154
850.88	29.05536
851.061	31.55972
851.243	22.1447
851.425	18.2707
851.606	18.14575
851.788	24.30221
851.969	28.70122
852.151	24.98194
852.333	23.3207
852.514	20.74398
852.696	24.00419
852.877	16.87006
853.059	24.09867
853.24	15.98461
853.422	25.07383
853.603	19.86414
853.784	26.31778
853.966	20.06302
854.147	18.01585
854.329	18.89171
854.51	27.65964
854.691	26.12446
854.873	28.43974
855.054	26.15628
855.235	27.26709
855.416	23.68296
855.598	15.53652
855.779	7.22457
855.96	6.93179
856.141	11.17052
856.323	17.00359
856.504	18.43841
856.685	10.87596
856.866	9.05129
857.047	6.28219
857.228	6.80356
857.409	4.55509
857.591	6.50969
857.772	11.23576
857.953	13.48477
858.134	6.77117
858.315	0.77458
858.496	1.29696
858.677	5.92394
858.858	4.09743
859.039	4.12884
859.22	6.87024
859.401	9.11986
859.582	7.6862
859.762	1.03499
859.943	0.90454
860.124	5.5007
860.305	4.45759
860.486	-0.07307
860.667	-0.43102
860.848	-3.13673
861.028	5.63166
861.209	7.45647
861.39	8.07574
861.571	6.86878
861.751	-0.824
861.932	-1.31279
862.113	3.61279
862.293	9.47828
862.474	10.03166
862.655	4.81319
862.835	3.15323
863.016	5.72923
863.197	4.45822
863.377	7.52181
863.558	4.22988
863.738	1.91591
863.919	-1.70243
864.099	4.52364
864.28	7.32613
864.46	5.37013
864.641	1.45814
864.821	4.22874
865.002	4.97869
865.182	1.26229
865.363	-0.56242
865.543	2.14323
865.723	7.52242
865.904	-0.78926
866.084	-7.40668
866.264	-11.64337
866.445	-4.66809
866.625	-1.34362
866.805	3.47922
866.986	0.41548
867.166	0.12229
867.346	2.53471
867.526	2.1429
867.707	0.35081
867.887	-3.23492
868.067	0.70897
868.247	1.78417
868.427	3.41367
868.607	5.07615
868.788	5.10875
868.968	-2.19169
869.148	-5.51599
869.328	-7.60281
869.508	-7.04936
869.688	-6.2998
869.868	0.74141
870.048	3.47936
870.228	1.16479
870.408	-7.31283
870.588	-4.67286
870.768	-2.13003
870.948	3.05536
871.128	1.16501
871.307	3.54421
871.487	-2.45101
871.667	1.16773
871.847	-1.8634
872.027	3.21921
872.207	3.02387
872.387	1.75228
872.566	2.04559
872.746	4.19533
872.926	4.81503
873.106	10.45425
873.285	7.5545
873.465	11.17243
873.645	4.9142
873.824	1.16399
874.004	-0.66103
874.184	-2.77988
874.363	-0.10577
874.543	-4.96388
874.723	-1.08475
874.902	-6.56211
875.082	-2.16033
875.261	0.47702
875.441	2.36899
875.62	-0.17382
875.8	-4.40863
875.979	-1.80103
876.159	-2.55085
876.338	3.08622
876.518	3.37953
876.697	1.55443
876.876	-0.98555
877.056	-0.7248
877.235	2.56723
877.415	-7.11459
877.594	-8.64667
877.773	-12.13382
877.953	-0.85504
878.132	3.67556
878.311	3.3811
878.49	-3.88782
878.67	-11.54668
878.849	-2.90734
879.028	1.4605
879.207	8.56547
879.387	3.80539
879.566	7.81299
879.745	7.5192
879.924	7.61722
880.103	6.57591
880.282	5.85964
880.461	10.13153
880.64	5.27442
880.819	7.45881
880.998	8.98734
881.178	8.88967
881.357	4.78175
881.536	-4.63746
881.715	-6.20255
881.893	-3.59411
882.072	3.8377
882.251	6.96793
882.43	3.28346
882.609	4.49068
882.788	-1.11608
882.967	-1.57251
883.146	-0.43155
883.325	3.74053
883.503	5.17516
883.682	1.42624
883.861	7.22845
884.04	8.20637
884.219	11.00972
884.397	6.93333
884.576	6.90075
884.755	8.36783
884.933	8.1741
885.112	8.46777
885.291	5.40248
885.469	-0.10892
885.648	-2.52154
885.827	-3.33464
886.005	1.2312
886.184	0.61174
886.363	1.00305
886.541	0.61218
886.72	2.40622
886.898	4.85065
887.077	5.46975
887.255	9.60897
887.434	2.69776
887.612	2.86108
887.791	1.58951
887.969	11.33704
888.147	9.70692
888.326	5.53472
888.504	-1.93113
888.682	-1.27908
888.861	-0.92068
889.039	1.98
889.218	11.43253
889.396	15.47437
889.574	14.33349
889.752	4.13126
889.931	-2.90909
890.109	-5.71217
890.287	-3.13711
890.465	2.14322
890.643	3.02349
890.822	1.45867
891	3.0226
891.178	7.97886
891.356	5.46905
891.534	4.59012
891.712	4.09844
891.89	10.42299
892.068	8.1731
892.247	9.77162
892.425	7.9778
892.603	7.06508
892.781	0.31736
892.959	-7.40632
893.137	-2.90802
893.314	-3.13616
893.492	3.64274
893.67	2.69702
893.848	4.03351
894.026	-0.26953
894.204	-6.39568
894.382	-2.58046
894.56	1.46138
894.738	0.67658
894.915	-4.31209
895.093	-6.10486
895.271	-2.55082
895.449	-2.55075
895.626	5.01268
895.804	8.43491
895.982	12.803
896.16	7.19594
896.337	6.73988
896.515	3.31705
896.693	-3.20161
896.87	-2.1581
897.048	-7.76497
897.225	1.52269
897.403	-0.20519
897.581	4.58687
897.758	3.15382
897.936	-1.37813
898.113	-3.20331
898.291	-1.37813
898.468	0.22007
898.646	0.80653
898.823	-3.46342
899.001	0.64377
899.178	-2.71383
899.356	-1.3446
899.533	-1.86602
899.71	9.08783
899.888	6.41498
900.065	7.94832
900.242	5.50289
900.42	3.41522
900.597	-1.05173
900.774	-1.47576
900.952	3.83962
901.129	2.40414
901.306	-2.55113
901.483	-4.89895
901.661	-0.82322
901.838	6.21832
902.015	7.62027
902.192	5.17479
902.369	-0.04112
902.546	-0.79125
902.723	-1.8014
902.901	-1.99701
903.078	-2.64884
903.255	-1.08397
903.432	1.7843
903.609	2.9901
903.786	3.903
903.963	-5.38641
904.14	-0.5959
904.317	-2.51966
904.494	2.36922
904.671	4.42587
904.848	6.87125
905.024	10.29407
905.201	0.77404
905.378	0.51316
905.555	-1.80114
905.732	1.91531
905.909	-6.65294
906.086	-6.32716
906.262	-8.28319
906.439	5.6662
906.616	11.69588
906.793	9.18492
906.969	2.95607
907.146	-8.68324
907.323	-4.70551
907.5	-11.68385
907.676	-1.70639
907.853	-6.69366
908.03	-1.89959
908.206	-3.88699
908.383	-0.43162
908.559	3.35008
908.736	-0.46439
908.912	1.32837
909.089	-2.77754
909.266	0.67805
909.442	-4.99439
909.619	0.35027
909.795	-1.08433
909.972	-1.96388
910.148	0.08975
910.324	0.08976
910.501	11.53311
910.677	9.93698
910.854	8.40485
911.03	-3.36629
911.206	-7.53965
911.383	-8.61562
911.559	-2.87699
911.735	-3.95281
911.912	4.16254
912.088	3.70638
912.264	7.35661
912.44	1.81677
912.617	4.65278
912.793	1.75226
912.969	0.08968
913.145	-2.97446
913.321	-0.10602
913.498	1.06768
913.674	4.09944
913.85	-0.72419
914.026	-5.385
914.202	-8.9057
914.378	-5.74459
914.554	-4.05021
914.73	-11.61174
914.906	-15.13261
915.082	-9.91715
915.258	5.63122
915.434	8.59793
915.61	10.06545
915.786	6.83779
915.962	15.18343
916.138	15.31363
916.314	9.1855
916.49	1.29623
916.665	-0.20304
916.841	-3.59422
917.017	-1.08488
917.193	-2.71532
917.369	-2.25711
917.545	-2.35365
917.72	-2.12545
917.896	6.70637
918.072	3.18547
918.247	5.14124
918.423	3.12129
918.599	9.54345
918.775	12.08613
918.95	-0.06908
919.126	-10.92411
919.301	-16.30268
919.477	-8.15737
919.653	3.73882
919.828	3.86921
920.004	3.08828
920.179	-1.5083
920.355	1.68546
920.53	3.575
920.706	-2.9762
920.881	-12.98383
921.057	-15.81974
921.232	-6.72371
921.408	-1.01866
921.583	-2.65001
921.759	-6.0735
921.934	-4.8669
922.109	-0.82323
922.285	-2.87736
922.46	-1.37765
922.635	5.30445
922.811	5.76138
922.986	4.26167
923.161	1.817
923.336	2.76251
923.512	2.56701
923.687	2.53437
923.862	0.09052
924.037	1.1008
924.212	-1.11553
924.388	-0.30199
924.563	-1.31225
924.738	-6.33346
924.913	-3.49732
925.088	-9.98441
925.263	-1.21398
925.438	1.29554
925.613	10.52074
925.788	5.59801
925.963	4.09934
926.138	-5.8441
926.313	-2.51844
926.488	-5.94146
926.663	-1.50574
926.838	-7.47248
927.013	-8.74449
927.188	-6.65973
927.363	1.84876
927.538	5.40259
927.713	4.7505
927.888	1.98072
928.062	2.92537
928.237	1.8492
928.412	0.21847
928.587	0.25171
928.761	-0.95375
928.936	-1.57293
929.111	-0.07408
929.286	9.86794
929.46	7.71602
929.635	2.46809
929.81	-8.97451
929.984	-7.89844
930.159	-1.80154
930.334	1.88263
930.508	3.47981
930.683	-1.01937
930.857	2.86091
931.032	1.23094
931.206	1.4266
931.381	0.61129
931.556	2.72997
931.73	5.89373
931.904	3.31857
932.079	2.0474
932.253	-8.32305
932.428	-6.66083
932.602	-5.29146
932.777	8.3699
932.951	7.0988
933.125	10.29088
933.3	2.59769
933.474	7.55337
933.648	-0.49615
933.823	-3.00603
933.997	-8.93953
934.171	-11.58023
934.345	-12.94998
934.52	-11.09223
934.694	0.48104
934.868	8.07733
935.042	8.27294
935.217	4.19793
935.391	0.25301
935.565	-4.14759
935.739	-7.2441
935.913	-6.29869
936.087	-2.68063
936.261	-1.14902
936.435	2.30599
936.609	1.49093
936.783	1.68656
936.957	0.61095
937.131	4.94589
937.305	7.12999
937.479	7.84726
937.653	4.13212
937.827	5.63022
938.001	5.17411
938.175	4.78291
938.349	-1.73557
938.523	-5.25623
938.697	-8.67886
938.87	-10.24336
939.044	-8.18992
939.218	-4.70171
939.392	-0.75744
939.566	1.03513
939.739	-1.0843
939.913	-2.71475
940.087	-7.8327
940.261	-0.36763
940.434	1.23031
940.608	-0.56123
940.782	-10.66738
940.955	-11.35171
941.129	-5.77861
941.302	-1.08392
941.476	2.27384
941.65	-3.3327
941.823	-0.33373
941.997	-2.61599
942.17	-0.88951
942.344	6.4415
942.517	7.90887
942.691	3.86785
942.864	-7.34266
943.038	-12.1676
943.211	-3.85493
943.385	-8.21897
943.558	-9.19205
943.731	-11.89771
943.905	-6.35972
944.078	-5.38585
944.251	-0.72432
944.425	-0.56113
944.598	3.25214
944.771	1.91546
944.945	6.38096
945.118	10.03025
945.291	7.32431
945.464	4.7492
945.638	1.39288
945.811	2.59906
945.984	3.25087
946.157	2.07759
946.33	-2.74703
946.503	-3.78965
946.677	-1.01844
946.85	5.27347
947.023	5.95752
947.196	5.43622
947.369	2.2084
947.542	4.29429
947.715	5.59713
947.888	7.87912
948.061	3.41387
948.234	0.51312
948.407	-1.83406
948.58	-2.29013
948.753	-1.76876
948.926	0.31814
949.099	0.4158
949.271	-1.05089
949.444	-0.33368
949.617	1.29607
949.79	-0.52947
949.963	1.65395
950.136	1.97996
950.308	3.83815
950.481	-1.9633
950.654	-2.8109
950.827	-1.93072
950.999	-0.3014
951.172	2.92573
951.345	1.1983
951.517	0.54564
951.69	1.42528
951.863	4.48923
952.035	7.45641
952.208	6.31662
952.381	1.58941
952.553	-2.71399
952.726	-8.5826
952.898	-6.1048
953.071	-3.236
953.243	-1.50844
953.416	-3.91915
953.588	-4.04929
953.761	-6.75495
953.933	-3.33372
954.106	-2.32363
954.278	0.64333
954.45	1.39316
954.623	0.87186
954.795	-2.77885
954.967	-4.96296
955.14	-5.0279
955.312	-0.72517
955.484	-2.28999
955.657	2.40254
955.829	2.9567
956.001	4.88019
956.173	3.51296
956.346	3.61085
956.518	5.86048
956.69	-0.5624
956.862	-2.81118
957.034	-3.56118
957.207	-5.35222
957.379	-5.97275
957.551	-0.95499
957.723	6.31371
957.895	12.34462
958.067	2.79495
958.239	1.06663
958.411	-3.46419
958.583	-1.76803
958.755	-0.85513
958.927	1.49159
959.099	3.96855
959.271	-2.32281
959.443	-1.93096
959.615	-3.07165
959.787	2.86102
959.959	0.93737
960.13	3.64292
960.302	6.28215
960.474	7.1624
960.646	6.1518
960.818	5.76336
960.99	5.33955
961.161	2.17716
961.333	0.67655
961.505	3.44715
961.677	1.46009
961.848	-1.80034
962.02	-3.78838
962.192	-0.75776
962.363	5.92299
962.535	4.09718
962.707	3.83611
962.878	-0.00825
963.05	4.65389
963.221	7.00122
963.393	3.02488
963.564	3.41508
963.736	3.34961
963.907	3.87086
964.079	-3.95151
964.25	-2.48426
964.422	3.05785
964.593	0.64499
964.765	-1.93039
964.936	-11.25522
965.108	-5.25727
965.279	-4.86607
965.45	1.75261
965.622	1.52434
965.793	3.6104
965.964	3.2847
966.136	2.76317
966.307	-1.34398
966.478	-4.24605
966.65	-0.88805
966.821	3.61071
966.992	3.51339
967.163	-2.97455
967.334	-7.7671
967.506	-9.2356
967.677	0.5763
967.848	-2.65087
968.019	6.5441
968.19	1.26385
968.361	9.15277
968.532	9.21654
968.703	9.96614
968.874	5.72849
969.045	-0.59514
969.216	-0.7577
969.387	5.76112
969.558	6.80421
969.729	4.19575
969.9	-4.66807
970.071	-9.62326
970.242	-6.95019
970.413	0.48
970.584	5.72871
970.755	-2.12787
970.926	-5.06172
971.097	-4.83409
971.267	0.64263
971.438	-3.30236
971.609	-8.77771
971.78	-3.6588
971.951	-8.02523
972.121	-2.0276
972.292	-1.14916
972.463	6.96698
972.633	5.01082
972.804	-1.24672
972.975	-3.23572
973.145	-2.25775
973.316	5.69576
973.487	7.09793
973.657	10.35954
973.828	-0.2356
973.998	-3.20293
974.169	-10.76803
974.339	-6.49659
974.51	-4.44179
974.68	-0.49696
974.851	2.6013
975.021	7.91425
975.192	11.98836
975.362	7.42308
975.533	0.47997
975.703	-4.47416
975.874	-3.20271
976.044	0.61128
976.214	2.17583
976.385	2.73001
976.555	3.8385
976.725	-1.89735
976.896	-3.13623
977.066	-7.5041
977.236	-3.85441
977.406	-1.70292
977.577	0.74137
977.747	-0.49698
977.917	-1.47468
978.087	-5.15818
978.257	2.63263
978.427	-0.0726
978.598	4.4912
978.768	-0.17068
978.938	-0.78993
979.108	-0.98587
979.278	1.8835
979.448	2.40449
979.618	2.24177
979.788	-1.24694
979.958	-7.01732
980.128	-10.50617
980.298	-10.08212
980.468	-0.98719
980.638	3.67574
980.808	-0.59418
980.978	-4.14802
981.148	-7.92996
981.317	-7.86701
981.487	1.91268
981.657	1.91301
981.827	3.60928
981.997	-2.5835
982.167	0.96932
982.336	-1.08447
982.506	-4.1814
982.676	-6.65856
982.846	-0.95412
983.015	2.11048
983.185	-1.08338
983.355	-2.48442
983.524	-3.8539
983.694	-4.11592
983.864	-6.59361
984.033	-5.51769
984.203	-0.85584
984.372	1.42634
984.542	-0.56221
984.712	-1.14902
984.881	-3.46363
985.051	-9.07044
985.22	-9.39642
985.39	-12.59136
985.559	-6.7886
985.728	-1.57221
985.898	4.58915
986.067	1.03647
986.237	-8.09116
986.406	-10.50334
986.576	-0.10512
986.745	4.22989
986.914	5.66432
987.084	1.06815
987.253	4.45862
987.422	6.47966
987.591	2.17562
987.761	-3.82288
987.93	-12.13412
988.099	-6.16767
988.268	-5.64549
988.438	0.4817
988.607	-0.85566
988.776	2.79432
988.945	0.44689
989.114	-3.75844
989.283	-8.71419
989.452	-4.89995
989.621	-3.10652
989.791	0.64362
989.96	-0.432
990.129	2.3719
990.298	2.63276
990.467	5.27323
990.636	0.77311
990.805	-3.33387
990.974	-2.48473
991.142	-1.21176
991.311	-3.13293
991.48	-8.57853
991.649	-6.42758
991.818	1.62175
991.987	1.426
992.156	3.61097
992.325	-3.36538
992.493	-1.05172
992.662	-4.24718
992.831	-4.01652
993	-4.04799
993.168	-4.60231
993.337	-1.57303
993.506	-8.42107
993.675	-9.62734
993.843	-9.95389
994.012	-3.17118
994.181	-4.11721
994.349	-3.20395
994.518	0.08928
994.686	1.85085
994.855	0.35153
995.024	-4.73421
995.192	-6.72325
995.361	-8.84244
995.529	-14.51507
995.698	-10.73342
995.866	-11.6462
996.035	-5.15883
996.203	-3.07212
996.371	2.30687
996.54	-1.70274
996.708	-5.02812
996.877	-6.33238
997.045	-10.56939
997.213	-9.62412
997.382	-3.62683
997.55	6.41224
997.718	3.47888
997.887	1.55707
998.055	-0.39842
998.223	0.28584
998.391	0.38359
998.56	4.16455
998.728	3.08796
998.896	1.84943
999.064	-4.92991
999.232	3.25155
999.401	-1.76956
999.569	2.95676
999.737	-2.68134
999.905	3.28433
1000.073	-1.99667
1000.241	-5.94244
1000.409	-10.63592
1000.577	-6.0398
1000.745	0.77501
1000.913	-0.59453
1001.081	2.69817
1001.249	-1.31154
1001.417	-1.31279
1001.585	-1.3134
1001.753	-0.23811
1001.921	1.19745
1002.089	-2.25761
1002.256	0.38316
1002.424	-0.43141
1002.592	1.26375
1002.76	-0.30126
1002.928	4.0349
1003.096	1.98118
1003.263	-3.20052
1003.431	-1.47271
1003.599	-3.98293
1003.767	2.79589
1003.934	1.19813
1004.102	4.81642
1004.27	0.93773
1004.437	1.65437
1004.605	-2.97281
1004.773	-2.61454
1004.94	-8.71248
1005.108	-4.9326
1005.275	-4.15008
1005.443	0.77405
1005.61	-2.35457
1005.778	-3.36555
1005.945	-9.20284
1006.113	-6.69344
1006.28	-2.65095
1006.448	1.16516
1006.615	-0.62746
1006.783	-5.84342
1006.95	-11.61418
1007.118	-8.25699
1007.285	-7.53903
1007.452	-1.08347
1007.62	-4.8
1007.787	-2.84454
1007.954	-1.11713
1008.122	0.1549
1008.289	0.90491
1008.456	1.45956
1008.623	-0.1056
1008.791	3.2826
1008.958	-2.65085
1009.125	-1.57416
1009.292	-7.79848
1009.459	-5.94047
1009.627	-1.93236
1009.794	-2.84417
1009.961	-6.16842
1010.128	-6.75465
1010.295	-5.22439
1010.462	-2.45441
1010.629	-10.8658
1010.796	-8.55074
1010.963	-6.07267
1011.13	1.55638
1011.297	-2.84485
1011.464	-6.13726
1011.631	-8.71227
1011.798	-4.44126
1011.965	-1.86607
1012.132	4.9457
1012.299	0.83834
1012.466	-2.031
1012.633	-6.33281
1012.799	0.41458
1012.966	1.32696
1013.133	-4.80078
1013.3	-5.58245
1013.467	-7.11426
1013.633	-3.36592
1013.8	-9.78967
1013.967	-7.3113
1014.134	-7.99573
1014.3	-5.06046
1014.467	-0.49708
1014.634	0.96955
1014.8	-4.79982
1014.967	-9.20031
1015.134	-7.11411
1015.3	4.45842
1015.467	7.91432
1015.633	10.09854
1015.8	7.71885
1015.966	5.17574
1016.133	0.31898
1016.3	4.42869
1016.466	4.36352
1016.632	6.67746
1016.799	-1.99595
1016.965	-1.18113
1017.132	1.7518
1017.298	3.96797
1017.465	0.41625
1017.631	-1.18041
1017.797	2.69848
1017.964	6.51095
1018.13	5.14188
1018.296	-1.31286
1018.463	-1.14982
1018.629	0.70928
1018.795	3.18734
1018.961	0.51482
1019.128	-5.22323
1019.294	-4.01699
1019.46	1.42665
1019.626	2.56753
1019.792	7.06449
1019.959	6.47856
1020.125	10.45472
1020.291	4.45796
1020.457	1.26227
1020.623	-4.14915
1020.789	-3.69257
1020.955	-2.42158
1021.121	1.36062
1021.287	-0.9864
1021.453	-2.81166
1021.619	-1.05061
1021.785	3.08863
1021.951	3.08849
1022.117	0.2846
1022.283	-2.61575
1022.449	-2.81142
1022.615	-0.49805
1022.781	1.22915
1022.946	-2.51909
1023.112	-4.53894
1023.278	-9.3648
1023.444	-7.70265
1023.61	-7.40974
1023.775	-3.30078
1023.941	-4.31274
1024.107	-7.08414
1024.273	-7.18198
1024.438	-1.15037
1024.604	3.60691
1024.77	-2.03046
1024.935	-4.99658
1025.101	-3.5267
1025.267	5.50018
1025.432	11.76039
1025.598	7.19674
1025.763	2.60111
1025.929	-1.40945
1026.095	1.29542
1026.26	-0.00947
1026.426	-4.21443
1026.591	-5.97423
1026.757	-6.07085
1026.922	-4.11537
1027.087	-8.12608
1027.253	-6.39848
1027.418	-3.69299
1027.584	-1.86719
1027.749	-0.00916
1027.914	3.18769
1028.08	4.39412
1028.245	-2.28832
1028.41	-5.48451
1028.576	-2.12652
1028.741	6.47877
1028.906	0.02256
1029.072	-4.05213
1029.237	-5.77947
1029.402	-3.62526
1029.567	-1.31076
1029.732	-0.26738
1029.898	1.29571
1030.063	3.41417
1030.228	-4.1803
1030.393	-5.54905
1030.558	-9.20004
1030.723	-9.29993
1030.888	-10.0178
1031.053	-6.82258
1031.218	-6.8215
1031.383	-3.62629
1031.548	-3.69116
1031.713	-1.31153
1031.878	-0.75726
1032.043	-1.31242
1032.208	6.08893
1032.373	7.91374
1032.538	13.32544
1032.703	6.73993
1032.868	12.12199
1033.033	-4.0801
1033.198	-4.08104
1033.362	-13.37454
1033.527	-7.01626
1033.692	-3.62602
1033.857	-6.16839
1034.021	-3.82211
1034.186	-4.99565
1034.351	-1.80119
1034.516	0.02425
1034.68	-3.82242
1034.845	-3.72434
1035.01	-1.57201
1035.174	4.81709
1035.339	-1.93243
1035.504	-6.9207
1035.668	-6.39777
1035.833	-0.62657
1035.997	-1.4747
1036.162	-1.50721
1036.326	-5.3547
1036.491	-6.33185
1036.655	-9.82099
1036.82	-0.43226
1036.984	2.82734
1037.149	-0.465
1037.313	-2.258
1037.478	-7.83211
1037.642	-4.54008
1037.807	-3.4974
1037.971	-1.47578
1038.135	-0.88876
1038.3	-6.75479
1038.464	-3.82205
1038.628	-6.49415
1038.792	-0.43051
1038.957	5.98913
1039.121	12.60434
1039.285	7.32279
1039.449	2.72896
1039.614	-5.35573
1039.778	-9.42818
1039.942	-14.96962
1040.106	-15.26172
1040.27	-11.67828
1040.434	-7.5713
1040.599	3.15494
1040.763	12.64226
1040.927	16.84782
1041.091	9.83801
1041.255	4.94649
1041.419	3.15319
1041.583	0.70884
1041.747	-4.37615
1041.911	-10.99393
1042.075	-11.94083
1042.239	-10.60377
1042.403	-8.48423
1042.567	-3.16967
1042.731	-0.75789
1042.894	-1.60459
1043.058	-2.64763
1043.222	-9.71959
1043.386	-6.5259
1043.55	-11.48044
1043.714	-1.27829
1043.877	2.86094
1044.041	0.77274
1044.205	-3.6941
1044.369	-5.71392
1044.532	-3.85375
1044.696	-5.25609
1044.86	-10.17776
1045.023	-5.06044
1045.187	-5.93954
1045.351	-3.62673
1045.514	-5.48489
1045.678	-0.8561
1045.841	0.00816
